mz	Intensity	SN	Resolution
94.21998	775572		1399602
94.66055	802800		1078721
95.27834	786349		1602647
95.5159	791133		1524105
95.63933	784444		939479
95.95677	776696		1571890
95.99994	8032459		1264158
96.00003	865359		3727505
96.18095	799009		908762
96.2398	835093		1232609
96.27197	774169		1402794
96.60192	823474		1139227
96.63574	793865		1581541
96.8704	809463		1252190
97.01549	836201		1334619
97.09357	787134		867481
97.10876	796115		1340220
97.25642	790815		1138825
97.29422	777780		1052948
97.30424	799739		1249570
97.331	777503		1400957
97.60471	774080		1239197
97.7622	810807		1650542
97.77212	794569		1105690
97.81781	892966		978031
97.85464	788238		1301177
98.16642	809896		1340170
98.22263	907729		1505443
98.29496	827258		844985
98.31892	860670		954482
98.3679	848084		1332139
98.41154	814317		1427190
98.41376	844597		1314187
98.52949	963045		1378084
98.55541	817048		1556225
98.57284	806674		1301129
98.63823	966725		1321744
98.72327	849025		1337485
98.75817	826273		1412513
98.77445	844914		1249583
98.79542	797408		1218442
98.79603	890444		1284738
98.83358	778997		1075416
98.87737	822156		1449059
98.9096	858663		1054731
98.98744	816626		1332045
99.05666	908135		1045892
99.06731	834712		1016444
99.10242	781082		1297201
99.10261	780742		1195637
99.1231	828381		1433823
99.16876	1041248		1115582
99.26446	836366		883151
99.27163	1018680		1320120
99.32495	811195		1098335
99.34539	824801		1058003
99.41085	825831		1337719
99.46817	776634		1316088
99.47714	961104		1216327
99.49064	813066		1163516
99.57973	785126		1180164
99.59207	876810		1147719
99.59771	942196		1058277
99.61876	815693		974621
99.65387	898298		1301349
99.79216	790588		888298
99.80158	816929		959036
99.80937	819367		1221451
99.81594	930797		1149986
99.83368	868891		1316073
99.83697	807208		1298459
99.86332	813262		1208000
99.97181	912391		842514
99.98593	798441		1393255
99.9996	878889		1164657
100.00515	784898		885413
100.01544	810639		1028510
100.1539	778710		1618836
100.17334	858753		1498824
100.22157	791300		1056112
100.22308	784844		1072497
100.23134	788736		1108012
100.23511	874448		1083555
100.25953	789991		1438761
100.31179	966530		1209319
100.31915	839448		1035310
100.32338	832710		953303
100.40633	829788		1384348
100.4249	776108		1631490
100.44873	866679		1151433
100.46272	786963		1491377
100.49702	885026		1262458
100.5007	932438		1493595
100.50292	789572		1129168
100.51592	869144		1114817
100.51878	779601		1075255
100.53229	844493		1194612
100.53259	879177		1280531
100.55061	974021		1160345
100.55641	866225		1453896
100.58331	774756		1170736
100.6029	875424		1138080
100.6116	826989		1087642
100.66389	846924		1046933
100.70859	823701		1380369
100.73874	841654		1081359
100.74153	857598		1009136
100.75169	873312		1273417
100.76358	816516		1050931
100.7661	818676		765219
100.77974	833363		1490151
100.78207	786581		893461
100.83237	957290		899516
100.83407	795282		1115622
100.88287	896075		876604
100.90215	878549		1237820
100.91042	938296		1300820
100.91865	852184		1186488
100.92057	794946		1172480
100.92378	778068		1470568
100.9549	835909		755671
100.97186	824701		1050633
100.99376	860542		1071300
101.01088	795696		1105155
101.02615	1133706		914750
101.08614	837860		1524239
101.17491	783410		1390267
101.19309	792438		1309889
101.20765	792997		1085291
101.24808	840048		1322774
101.31942	795445		1098329
101.38213	863769		1028849
101.41007	870145		1571428
101.41075	791803		856131
101.43563	781588		978935
101.47052	818015		1152599
101.47539	847643		903092
101.48657	820347		1175143
101.51267	886654		1067289
101.5146	810758		1441699
101.52068	802686		1334987
101.54028	872961		1210167
101.54055	791781		1209829
101.65216	807371		1196425
101.6583	884879		1283945
101.70552	796281		1401088
101.71904	910655		836264
101.72346	790501		1598083
101.72894	822597		1228905
101.75966	894800		985827
101.831	822798		1101545
101.83924	827922		1226306
101.85287	773994		1540383
101.88965	785761		1170773
101.9067	791252		941170
101.91035	858232		1115217
101.91213	775248		1207908
101.96808	901799		1031218
101.99764	885538		957463
102.02091	897050		1347388
102.02229	936489		1151115
102.07424	876156		1136915
102.1112	786471		1449641
102.1125	869491		1089762
102.15011	823386		1408986
102.16916	822734		1129870
102.17354	872326		1146860
102.19822	794713		1111274
102.20605	815765		1208944
102.26176	822655		1418486
102.27539	797543		1236245
102.28696	874295		1268399
102.30249	787710		1170090
102.32012	802794		875415
102.32756	787534		1265850
102.3587	868373		1297970
102.36768	804281		1210459
102.36923	797125		1231832
102.4429	905619		1293891
102.44437	790019		1485202
102.47108	830650		1688041
102.47392	845930		1293811
102.47594	802626		1454636
102.47948	894042		1388429
102.49454	828681		1106769
102.50284	821609		1016467
102.50573	841869		1062676
102.54708	1139064		1049547
102.54798	886360		1215530
102.56335	779130		785797
102.57594	847569		981040
102.6245	822730		904520
102.63199	804718		1571828
102.66445	786131		923683
102.66678	1013917		1357106
102.67699	913209		897675
102.68	909025		1155523
102.68968	886364		1438561
102.73846	821347		1394181
102.76987	977558		1148649
102.78889	794346		1073570
102.79113	814550		1243376
102.79802	791274		1460749
102.82035	812337		1121979
102.8307	851677		1218102
102.83284	822873		727819
102.84096	859297		1439593
102.84976	1072956		1098442
102.85403	827732		825871
102.85741	1095600		888869
102.86337	789696		1040661
102.87275	825140		1242077
102.88919	816827		1357883
102.93111	843910		1230914
102.96128	860733		1487476
102.98563	787489		1233226
102.98852	792773		1353316
102.99717	829480		1100300
103.02223	790304		1309071
103.03412	789011		1365739
103.04733	775027		1490151
103.05804	785507		1600991
103.06324	798907		1333116
103.06743	801271		1054380
103.07116	788478		1033551
103.07227	793264		673943
103.08878	946606		1133018
103.10231	801738		1031669
103.11141	775509		1292785
103.15601	773794		869496
103.18093	832608		1183010
103.2055	863967		1353071
103.20725	798295		1211033
103.21428	924463		1572187
103.23496	872470		1429767
103.25191	865294		1087069
103.26722	911113		967515
103.31726	865088		1161043
103.31825	804792		1217938
103.34241	779711		1047122
103.42195	820533		1054338
103.48512	779495		1101597
103.49028	823887		1116865
103.4949	842079		1704874
103.50532	776783		1088499
103.50714	822687		1316408
103.51815	820807		1339394
103.51959	822166		1703426
103.52776	851534		1101448
103.52897	778902		1304743
103.54126	806454		1101355
103.57466	789237		965175
103.57559	853453		1209110
103.59267	913669		1353639
103.60389	895920		976288
103.6079	958300		1353094
103.63217	903995		1320873
103.6443	867275		1240837
103.65102	843259		758635
103.65778	779251		1261560
103.66315	812659		1036779
103.67508	778154		1475805
103.68791	799782		1107949
103.69117	862914		1147910
103.69783	855346		1233919
103.71233	945077		1098049
103.74429	843960		1281606
103.76201	836240		1040312
103.78697	862303		1129337
103.79852	798499		1185678
103.81278	812323		923630
103.85026	779470		1561145
103.85432	802733		1270357
103.88458	857061		1350318
103.88653	774461		1233587
103.895	779560		1203208
103.89537	845284		908769
103.9009	784200		1133271
103.90188	837516		1367380
103.91501	811148		1413132
103.94047	855271		1181517
103.94112	839003		975964
103.9454	793403		1328622
103.97402	893098		1393699
103.99278	974970		1290616
104.01587	829617		1227894
104.01864	817561		1445889
104.03486	824832		1509118
104.03835	785600		1293164
104.04825	895296		1066230
104.07238	940999		968995
104.07993	788563		1285472
104.08504	822851		1215350
104.09296	895003		863074
104.13195	844334		984672
104.15384	903101		1328447
104.156	775221		1592873
104.17338	856121		970672
104.19448	778732		1318347
104.19528	952572		1032329
104.20301	819796		1251326
104.20713	854084		1419455
104.21518	783484		1016641
104.23632	778067		1027069
104.24537	782203		1197320
104.28271	917906		1175535
104.28845	783613		979173
104.29436	778957		1122930
104.30561	774265		1168198
104.31873	827013		992923
104.33184	787788		844510
104.34452	831616		957766
104.35788	808736		1283512
104.36134	870511		990445
104.37133	784975		1095485
104.38489	1009559		1246130
104.38764	805495		1248353
104.41842	776920		979120
104.42576	956070		744175
104.49145	819456		1051349
104.49963	845268		913249
104.50166	790908		1294436
104.51119	794731		1164011
104.52491	876687		1073262
104.52537	793599		1028008
104.55527	859146		1239025
104.56479	848594		1633981
104.58582	923833		1503720
104.59855	798553		1433267
104.59968	820637		852155
104.61102	776584		1537605
104.61999	812752		1319390
104.63267	828288		1271707
104.64084	789480		1539733
104.66335	786687		1129527
104.68321	807350		1398265
104.68736	776014		1262084
104.68893	774438		956664
104.68961	776086		1025239
104.69796	784918		1123314
104.7076	799366		1031230
104.74046	848693		1096564
104.78039	797564		1155738
104.78573	886044		941609
104.7897	817811		1405453
104.82103	783403		1073990
104.83742	783218		1234584
104.85238	909594		1139693
104.85687	777978		695920
104.86242	878449		1325933
104.86479	969393		1208252
104.88376	814005		917751
104.89482	795169		1565503
104.89608	873872		1400964
104.9029	780872		1552904
104.90302	782224		1523042
104.90549	833120		1059868
104.90565	849136		930072
104.96022	796899		937542
104.97245	800978		853794
104.98307	781830		1471179
104.9907	840114		1048346
105.0247	831245		1181017
105.03256	825829		1080742
105.03326	828433		784464
105.04224	794680		1020538
105.05183	826236		1314039
105.054	850768		900544
105.06596	851388		939365
105.09073	921003		896082
105.11554	776802		1278889
105.14	844458		1353052
105.14451	786769		1324590
105.14908	817993		1122246
105.15608	879025		1251341
105.16628	887105		907423
105.19761	787984		1227266
105.20227	1027064		1274211
105.20399	796756		978569
105.21773	773999		1417670
105.22368	858267		839407
105.23174	867895		1437525
105.25335	781842		966880
105.25833	815990		1217740
105.30233	833229		1187258
105.30278	830309		1142371
105.30456	794597		1483174
105.3063	829597		1308583
105.32665	830500		1030879
105.35006	818724		1319720
105.35868	806059		1233450
105.3867	881523		1208070
105.39053	939242		901679
105.40983	831578		951732
105.41979	782170		1507786
105.42824	888081		1125172
105.50035	813891		857841
105.50389	832655		1404587
105.50559	781219		1107402
105.56074	891466		999977
105.58256	796513		828679
105.60286	911004		1168709
105.62822	773924		1163896
105.63017	786852		1583653
105.66718	865426		1368764
105.67907	797814		1122103
105.70095	793694		1072169
105.70966	774505		1355856
105.72004	812621		983756
105.7354	878105		1581079
105.76468	789776		1296356
105.76944	891612		871571
105.77349	843111		1227893
105.79794	914015		1264111
105.80534	826350		1099378
105.80545	788542		1112614
105.82725	776158		1085941
105.83425	797806		1298473
105.83948	778494		1224949
105.84401	845873		714048
105.85797	821957		1041989
105.88146	849716		1225817
105.88576	833364		847750
105.90553	778060		1232409
105.91962	804123		1168468
105.92343	787091		1098795
105.96138	797402		1301216
105.97698	822882		1327878
105.9783	841625		783667
105.98813	871697		868634
105.99674	831921		1097075
106.0021	812957		796513
106.01075	946461		916708
106.01676	781576		1430601
106.02899	855584		1422018
106.0291	785968		1135637
106.03043	801160		1075968
106.04269	991776		986578
106.04298	778976		1396734
106.05286	853607		1114637
106.07329	889447		924469
106.08493	776942		897191
106.09479	825034		897187
106.11406	794198		1315517
106.13368	812373		1324481
106.1353	781453		1299852
106.13581	839189		928985
106.15224	911404		1136588
106.15515	827180		1089875
106.16314	818228		900036
106.17864	851008		793071
106.20125	877231		820117
106.21205	813603		1159901
106.22274	805402		1226581
106.2282	805498		1565614
106.22983	784810		1275158
106.24545	867670		983670
106.26478	918701		910744
106.33251	853767		951509
106.33296	897519		830460
106.34346	794267		880132
106.35574	842723		906439
106.37007	900434		921223
106.38597	810090		926987
106.40041	787981		1397963
106.40273	898005		888326
106.42743	833116		1082383
106.48532	799923		1154105
106.49511	872858		598993
106.53458	782889		1430803
106.54096	847961		1228935
106.55264	878481		1101451
106.55833	844953		890380
106.57857	819488		1497867
106.57928	787616		1362746
106.5817	801024		1157170
106.60021	793967		1069205
106.61707	852735		1271256
106.62033	801031		1138801
106.62229	790895		1201562
106.62364	797267		867335
106.6271	793087		1079477
106.62874	806699		879530
106.6437	785518		1237615
106.64636	806938		766067
106.6708	873029		1200243
106.67784	901885		1017495
106.68741	854501		1170412
106.71593	808780		1068524
106.72366	787700		1198615
106.75092	850483		745433
106.75227	782043		1238084
106.75329	805531		1103828
106.7637	780011		1257715
106.77332	813994		1129332
106.80264	798521		1337529
106.8443	789472		1246336
106.85416	827552		912491
106.88081	789735		1272041
106.90831	1010678		1056878
106.92746	826750		844422
106.93366	801322		705552
106.93683	843973		1007744
106.93759	787117		1333729
106.94628	807093		1444321
106.99535	785004		990673
107.00102	780468		1452920
107.00599	844883		1442594
107.01652	881483		1095827
107.02468	805007		1097469
107.06233	820082		1127417
107.07328	900513		1567691
107.08061	822413		978382
107.08251	809897		994342
107.10004	807633		1302220
107.10598	844336		998319
107.11984	803896		1048055
107.13719	796848		1010848
107.14863	908035		925438
107.17824	1016894		1324829
107.2067	780638		1294631
107.23282	779989		939562
107.24435	846020		1104202
107.25474	814092		951332
107.26933	800260		1121134
107.27221	805524		1288855
107.28276	899723		877937
107.33361	921770		1204180
107.33384	808754		1394172
107.33661	835162		820246
107.3392	810954		1308007
107.3437	786297		773284
107.35648	871241		1232096
107.3577	787529		1176797
107.3927	854080		1060775
107.3982	819288		1108203
107.39978	827068		970043
107.40994	799791		1147548
107.414	805463		1262557
107.41693	802471		1322565
107.41709	804011		774527
107.42522	822447		1091299
107.43753	805887		1169575
107.43907	775023		1440736
107.44844	776654		1012442
107.45172	868750		910019
107.45908	801110		1111729
107.4774	824285		963778
107.49251	824525		899739
107.51185	855116		960520
107.51863	775988		1010739
107.52105	808724		1152071
107.55445	785603		1181236
107.55848	793059		1050100
107.57424	958707		932081
107.58918	789578		1255966
107.60533	773970		1025560
107.61694	838513		1150134
107.6243	777817		1455318
107.64098	801593		1192599
107.64746	787032		1445560
107.65192	824856		1152938
107.67535	827896		1234651
107.68464	801025		563585
107.72511	776478		1149420
107.72652	927078		995412
107.75067	861125		968869
107.75183	954973		1132234
107.75616	831021		1144469
107.77591	779309		1570123
107.78165	845292		1309092
107.78371	800572		1272516
107.79037	788188		1022732
107.79226	799284		1198402
107.80107	911004		1226428
107.80192	867324		998092
107.80409	1041876		841619
107.80876	815724		1307475
107.8262	1194139		1287291
107.82753	839851		1416126
107.8297	835835		1363011
107.83362	813691		1024628
107.84026	799067		1396306
107.84084	977483		1374298
107.86361	872578		1012318
107.90103	876281		1366131
107.90514	844273		1267136
107.92844	864200		1262473
107.93443	794112		789191
107.93569	810978		1059377
107.93575	776096		736161
107.94924	797735		1360847
107.97287	799815		1341023
107.9741	779735		1189479
107.97845	805343		1230008
107.98867	781574		1326817
108.01175	787646		1241471
108.01473	825654		999877
108.0155	947486		1156188
108.01797	863645		1053735
108.04552	808869		1084179
108.04918	825621		1464026
108.07783	847540		775986
108.09226	860691		816066
108.11063	796155		1230261
108.17351	841433		1084553
108.17642	944665		1011187
108.19377	916752		1068141
108.22438	812335		1523280
108.24818	795503		847953
108.25709	920910		814263
108.28257	779550		1145597
108.29224	878557		1113997
108.32678	824300		1216626
108.33498	953652		872390
108.35517	975659		1053433
108.36233	1036859		994346
108.37066	789075		1183325
108.3708	847951		816731
108.37805	870319		853219
108.38196	784971		1081486
108.38468	805891		948364
108.38668	777314		977417
108.39201	821634		1141597
108.4004	947154		1084214
108.41529	796122		776122
108.41712	977018		1085778
108.4433	822401		1024604
108.4514	796353		1169446
108.46765	996392		869164
108.47744	956120		1034139
108.47876	915008		999493
108.49366	843783		1202660
108.51455	860615		1106013
108.54572	895366		1388851
108.55942	912653		951748
108.56142	840773		1022740
108.56604	904373		1111898
108.59475	809620		977235
108.62901	775691		1137036
108.66283	816738		934899
108.66643	843850		649911
108.66703	854626		970028
108.67977	805106		1446172
108.70126	773753		1091928
108.70213	914449		954595
108.73257	830680		1125795
108.73555	826160		1379002
108.73911	819664		1353211
108.76717	876639		922947
108.76994	849335		1058524
108.772	773727		1173468
108.77696	891503		1323217
108.81696	806246		742640
108.9433	941594		1185011
108.95498	787922		1186127
109.00701	787016		1081995
109.01783	793952		981776
109.02541	884311		1324331
109.02979	1059127		1224372
109.0325	988823		867891
109.07096	785782		1347914
109.08709	831286		1478691
109.09354	893989		1124283
109.10519	807405		1044691
109.12018	826637		990671
109.12868	814648		719829
109.14331	798060		1291974
109.165	833075		969651
109.16687	884523		944658
109.1866	849251		1073421
109.23153	926225		1192821
109.2453	835937		1184859
109.26687	892548		651080
109.27312	866736		1279764
109.28441	798048		1139155
109.29771	882127		1096976
109.35521	787622		995330
109.36848	799413		1261470
109.40878	774540		1196392
109.40947	786304		938296
109.42878	860187		1098353
109.42924	803515		986977
109.43639	784523		930140
109.44232	790187		1234982
109.44549	875843		788425
109.4665	793546		1193571
109.46729	824122		1420515
109.46955	887818		1174801
109.48892	787586		1264759
109.48906	814362		1488187
109.50776	988409		875683
109.56805	803847		829841
109.58238	836311		1221856
109.60278	787350		1158476
109.62152	820242		795115
109.64396	857349		1302045
109.65981	882989		847535
109.68371	908292		1416510
109.6858	821724		1168763
109.73666	780466		1384792
109.74122	826714		1077823
109.74357	898450		1025596
109.74666	843970		943640
109.74816	882418		1130182
109.77165	796449		1039019
109.80302	823024		1511783
109.80838	794592		1393925
109.84221	812383		1127297
109.85244	859519		1497694
109.8608	803291		869022
109.89515	919830		987161
109.90384	837949		1218068
109.91644	823429		1076240
109.93937	919924		760027
109.94223	786188		934565
109.9809	879763		924889
109.99662	797755		1359747
110.00909	820154		735538
110.01331	845962		1107467
110.0153	868698		1079833
110.02487	785690		1483871
110.04125	808041		1300413
110.05086	806329		1312582
110.05169	877209		1236392
110.06571	859249		833710
110.0675	823561		1194853
110.07325	833880		809804
110.07598	930768		1036447
110.08206	873896		1147687
110.08433	854688		939798
110.08717	811896		1334766
110.12612	927807		913170
110.1301	917911		1276584
110.18001	824277		978266
110.18101	898693		1130736
110.18913	776693		1000890
110.19912	783461		1334086
110.20345	804669		903512
110.20427	829813		1359283
110.21226	1041644		791990
110.24502	837987		994306
110.25786	1122931		1069797
110.25941	820947		840591
110.28661	799994		1033377
110.30074	867442		853242
110.32456	785633		976220
110.36479	827616		1227562
110.36741	848496		932055
110.37031	895424		1271629
110.37085	814116		688018
110.37302	851712		1130648
110.40427	780351		1324052
110.41778	785390		1279900
110.42171	793558		1080728
110.49079	800700		1448783
110.49105	873860		958161
110.49683	828988		812125
110.50955	798396		1263053
110.51339	816987		1234807
110.5185	885755		1190687
110.53931	781987		1153904
110.56789	806618		1164292
110.58341	774089		1356193
110.5878	1066585		1138212
110.61554	784088		892379
110.61713	781280		763539
110.65488	957355		704578
110.68093	815830		1200002
110.68187	831774		929012
110.70126	823902		962770
110.71542	986773		1253476
110.72686	860925		730107
110.74801	797605		1335091
110.75214	784524		1006385
110.76135	830060		873219
110.79903	850835		1081176
110.81715	955650		1178620
110.82938	826786		650026
110.84189	830370		1268050
110.86011	801753		982259
110.86296	838145		1266547
110.87695	792633		975477
110.88324	853585		1140819
110.90836	782128		1371854
110.91087	812800		1258241
110.93192	775439		1508288
110.9428	786911		1137991
110.98813	809117		1270768
111.02303	818348		1209358
111.04629	828556		1012817
111.05679	786259		951987
111.08075	884315		1298340
111.09371	908666		1114532
111.11277	794010		1442748
111.11512	868346		1120302
111.11621	789866		980938
111.14275	817545		876651
111.20587	944991		757220
111.20808	863975		1155106
111.22038	825767		1301279
111.22721	822567		1124676
111.23369	820278		1241652
111.24031	843470		898403
111.24296	846310		1287138
111.30782	813364		1009291
111.31821	813476		1362308
111.31997	814476		1021969
111.34802	812659		1161449
111.35448	775795		834423
111.37464	833058		1345326
111.37514	835394		1108465
111.37531	929690		938925
111.38256	836034		1254570
111.39628	778498		1517209
111.40406	802121		964538
111.45804	795320		1013167
111.46356	836856		704613
111.47694	786267		797134
111.53037	838446		1400398
111.53268	857982		1347759
111.53332	835566		1094860
111.55767	885741		1043891
111.61416	971835		981819
111.61537	946043		1157195
111.63766	807435		1319837
111.64867	945978		1212476
111.67109	873354		924176
111.67494	782682		1380723
111.69731	796681		1173256
111.71628	995480		1018622
111.72459	784016		1079184
111.75803	831143		1172502
111.77165	837111		1025386
111.80042	781246		995463
111.81133	844438		1483432
111.81573	814517		724985
111.82122	798845		684077
111.82782	833685		1052338
111.83536	854997		1345830
111.90067	963483		813145
111.92069	814738		1265351
111.92868	791570		1203795
111.93341	903858		1153812
111.96184	830625		834878
111.99303	921280		837502
112.00084	835440		1080850
112.00172	877168		1530858
112.01111	841704		950932
112.01865	836224		1329739
112.02712	906527		1005192
112.0376	915743		1148294
112.04	844495		1285738
112.04705	816303		1161438
112.05332	831519		768865
112.05928	890959		1073144
112.05945	823767		825123
112.06221	847918		1200689
112.08764	829630		1360695
112.09292	780862		1498763
112.09445	795822		1086581
112.10033	796477		1123982
112.10834	1358829		1159176
112.11848	927421		1004473
112.12692	857933		1378733
112.14358	939548		1027035
112.16371	849116		1172299
112.1646	804244		947226
112.18078	786315		1067060
112.19102	804971		989933
112.22918	836346		1352742
112.24777	851465		665728
112.2506	774113		1027640
112.25686	782313		1204336
112.28358	795640		1222250
112.28801	821144		1218649
112.29759	814872		1247006
112.3152	794167		1104497
112.33307	812247		1169377
112.33672	785479		1172413
112.3407	841863		1297774
112.411	829381		1355223
112.43922	888228		1195553
112.47066	778987		960349
112.4753	798747		998468
112.47867	782835		1073853
112.50806	803786		726180
112.51283	842130		1054924
112.54638	812273		706179
112.58857	773903		1225885
112.59237	792879		1026711
112.61411	878607		1320953
112.62739	843230		915428
112.62892	822286		1097165
112.63403	853486		1055087
112.64031	837886		1007766
112.64404	876174		1316559
112.66	852045		1196994
112.66426	865517		968556
112.68165	776573		1106218
112.68215	801885		1040913
112.68354	793581		1267781
112.70718	810796		1126939
112.71791	807580		1214804
112.72145	853996		845345
112.74967	802379		1246045
112.75808	811219		781752
112.76935	794946		917866
112.79255	793898		1136743
112.79342	778810		1285650
112.81324	785225		1181617
112.82471	786057		821869
112.83352	787433		1215343
112.83369	796009		1364821
112.84639	893624		1063514
112.874	823311		696361
112.88426	780679		1395912
112.89596	817879		1178874
112.89779	811863		1297985
112.89938	792007		910410
112.90089	845431		1386638
112.93196	780182		1090804
112.9327	781718		1271718
112.95194	822725		1093939
112.98609	785364		884219
113.00104	913140		1075592
113.01006	883644		748063
113.01384	780388		798053
113.02853	821139		985008
113.03661	796131		1121594
113.06099	894690		1240157
113.06445	834338		1046354
113.06735	885762		1422067
113.09223	918033		1222393
113.10557	921729		1242823
113.10733	781889		1418395
113.12609	837040		929071
113.14095	853024		1057741
113.14111	780024		801470
113.14792	784824		788993
113.16602	846943		1153757
113.18099	1003135		1004590
113.18313	826479		1130483
113.20783	855998		1056788
113.21903	776110		965638
113.24655	814333		586482
113.27429	791532		1495135
113.27789	979596		996470
113.31304	787979		972059
113.31582	848147		670155
113.31971	860859		1380334
113.33149	839675		972075
113.33715	802507		1118694
113.34458	789586		932149
113.37747	784010		1068839
113.37893	802074		1314144
113.38614	927033		1187802
113.43464	840920		1214010
113.44822	774280		1430692
113.47886	855687		960052
113.50123	837558		1160266
113.53443	776125		822264
113.55553	875045		1062300
113.5694	908596		915539
113.59761	801796		1273052
113.60147	783923		854640
113.60485	924883		1104242
113.60645	788099		1238555
113.60744	798163		1216641
113.62074	877627		933732
113.62988	778035		1285542
113.6304	890307		1222272
113.63277	862075		909390
113.64274	850658		746733
113.64537	777778		1434081
113.64758	789010		1291870
113.66155	787234		1029756
113.66672	836674		981216
113.70955	813489		1128749
113.71095	781600		832087
113.74621	1015216		1037101
113.74736	792335		1363434
113.75191	785775		757757
113.77547	873151		783225
113.77682	784383		1027200
113.78319	880319		1273811
113.80775	824574		1367110
113.81034	849630		1180967
113.8181	848430		1220400
113.8504	826765		1149050
113.86775	963436		1016847
113.90287	911755		1070528
113.91479	778923		1271968
113.94814	920346		842866
113.95415	934906		982926
113.97816	774361		1177422
113.98447	810153		1054668
114.01609	877544		1175845
114.04209	785512		1186902
114.05118	779927		1557056
114.07989	808375		851676
114.0989	957798		988895
114.11635	840406		1443631
114.13475	781637		1291443
114.17465	850708		1201252
114.18517	788916		942500
114.19254	797236		819838
114.22693	921635		1037839
114.23794	816738		658758
114.28033	774897		1063145
114.28237	820689		1453929
114.28911	914993		1084722
114.30798	838992		918060
114.30823	861152		989625
114.31452	818784		1316333
114.32214	856560		776587
114.32234	775904		1105067
114.34524	829024		1337668
114.35575	776591		1369788
114.36092	903679		860860
114.3831	810671		907540
114.40686	857310		974534
114.41421	774942		1087410
114.43238	844765		1111765
114.4347	795501		1006463
114.43759	899453		1162092
114.43901	806397		888826
114.4395	867245		785490
114.44879	834973		1240618
114.46814	823500		1250152
114.50213	843627		987670
114.50996	876427		915776
114.5109	780715		1239545
114.51736	920267		1476347
114.52374	940507		1134655
114.53162	840331		1150148
114.53597	823626		977296
114.56708	792842		758664
114.57076	865498		1165673
114.57165	777242		1114587
114.57698	779097		987485
114.59633	829577		924684
114.60737	797657		1287949
114.64236	782824		1382294
114.64928	796432		833315
114.65533	873287		790057
114.7022	827222		1242911
114.71363	793286		1212150
114.71987	826406		1466191
114.73354	894229		883959
114.74235	790661		1317532
114.74433	803397		1256743
114.77433	779732		1340426
114.77653	800916		1338423
114.81231	823507		1342764
114.8215	912915		1030686
114.84359	802931		889192
114.85233	796466		1235866
114.85728	792562		1197686
114.85778	806186		895595
114.85981	790114		1481303
114.87801	820402		1046799
114.87986	833474		1001842
114.88162	944146		1146568
114.88196	824674		1026059
114.89677	870385		1060549
114.95703	798736		1038341
114.97721	857375		971230
114.9816	836975		1321258
115.01005	823550		1086554
115.03807	811454		1290736
115.07385	888045		981608
115.07578	914893		1087562
115.08395	830364		1178861
115.12001	820419		817759
115.12671	800715		1160669
115.12886	808203		1244201
115.12934	785395		834183
115.13548	807691		1121255
115.16761	1029066		946970
115.17494	866802		652097
115.19823	776297		1345850
115.20109	806145		800338
115.22719	782345		1174272
115.24508	851096		1350571
115.26276	778088		1234060
115.26433	836232		943573
115.27046	786888		1179307
115.28416	905847		1202295
115.30093	796327		720915
115.30113	930471		1077799
115.33771	839238		1111442
115.35789	890181		1190247
115.37573	828053		1436952
115.39515	778277		1069546
115.39614	786164		1204628
115.39673	834596		1113789
115.41103	837636		1114543
115.42564	808356		1028052
115.43475	798420		1110720
115.44905	885443		825885
115.45008	847699		1429350
115.4592	808163		1018133
115.47047	893139		1322983
115.48736	806834		1399837
115.50087	893970		1212590
115.50966	830626		1139803
115.52829	836417		1151503
115.52898	980897		849744
115.53209	787393		1042315
115.55801	895760		1285775
115.59615	813180		438289
115.62522	914191		935875
115.63256	893775		1011509
115.64131	813886		1279202
115.64263	809886		836886
115.64296	953358		1177589
115.65864	865150		664787
115.66148	798526		990891
115.68774	825717		905634
115.71487	787229		1085709
115.72192	882380		816932
115.73139	789932		921265
115.73912	894604		1021634
115.7739	786747		1122246
115.78341	807083		952297
115.84877	823721		895482
115.8642	808537		1166638
115.86686	856473		1060288
115.9293	778983		1282592
115.93698	780679		1380066
115.93743	804647		1361855
115.93806	845583		883637
115.94005	802519		1022216
115.95515	800215		1243471
116.03341	779301		1185755
116.06498	805476		930730
116.09018	777379		1089037
116.09577	783427		948965
116.1012	809363		774243
116.11292	816099		885128
116.13481	828946		948479
116.1426	817266		714529
116.17165	1055394		1072978
116.17585	773857		1081803
116.18655	856865		1077766
116.18889	813617		963836
116.19026	855617		1202111
116.21424	819681		1122588
116.25461	802992		1063267
116.26622	793727		1268767
116.27046	913743		1041354
116.3247	981918		1111753
116.33197	790270		1198934
116.33997	919646		1100612
116.35534	788077		1046357
116.36316	786721		634199
116.37023	901757		900136
116.37495	774557		1333187
116.38427	836445		1078840
116.38875	775436		1004178
116.39607	872828		1085698
116.4191	819340		1036267
116.44889	1046683		807315
116.48594	804106		784019
116.5122	808826		1445557
116.52437	950137		1207485
116.55298	796505		1374879
116.56854	869832		960937
116.57006	785784		1180846
116.59087	860568		714356
116.59802	891664		784390
116.60372	800735		848175
116.61621	815719		1003148
116.64836	785498		621164
116.65237	806214		855970
116.68747	809637		863446
116.69431	885813		770535
116.73114	788548		1140682
116.75737	906004		959323
116.77249	794708		1086661
116.7829	788339		1100730
116.79184	830611		979674
116.79653	783043		950576
116.82276	781898		843181
116.8348	850962		1269909
116.8688	894641		1121186
116.89909	775601		915163
116.94102	795024		1108041
116.96256	789503		936782
116.96323	894591		1092428
117.00258	797630		788032
117.01547	809534		885740
117.03353	835038		996568
117.03668	955614		957439
117.03952	903245		832412
117.04556	834493		932630
117.07439	788901		788972
117.095	811708		1174499
117.12189	822060		962840
117.14254	859291		969357
117.14977	860235		1281568
117.15657	815931		817824
117.16927	774827		1269649
117.17524	795610		1168465
117.18454	931866		916252
117.1968	906666		1303858
117.2098	818170		1182162
117.21443	842554		854529
117.25396	814121		1472241
117.25542	862985		1198036
117.25591	830729		1377901
117.26272	863209		1267311
117.26287	865257		1323177
117.32828	824423		1294990
117.33121	795447		885905
117.36321	806054		1108417
117.3817	870662		1386736
117.38685	776614		1107039
117.39358	898758		1002619
117.39416	777062		943893
117.39832	805462		675475
117.42623	802405		1200328
117.43639	893317		829524
117.43671	835781		1100735
117.4789	777108		1043239
117.48679	953540		1160192
117.49656	858579		1009869
117.50993	878099		1062260
117.52268	824259		1038800
117.54164	862846		667656
117.54609	825346		1165861
117.54926	867122		723211
117.54992	819586		1168403
117.57704	895842		1267830
117.5958	834881		867556
117.60558	822017		861740
117.62703	848689		766615
117.63396	921376		1118260
117.65168	942560		877681
117.65295	826160		1005266
117.71373	881951		1074902
117.71814	785143		771868
117.73466	823582		775277
117.74295	801790		935021
117.75405	821502		977737
117.75804	797006		1164144
117.76237	843390		1052015
117.768	944798		1160738
117.7762	787997		1289228
117.78685	811725		1179680
117.81781	862621		1113794
117.82238	784061		1333025
117.85462	802364		1105824
117.87447	793851		1036140
117.87768	786667		1091149
117.89452	790603		1037773
117.90379	814907		1290746
117.91185	788523		1191494
117.91624	847195		1098525
117.94485	827162		1212724
117.98451	779737		1045320
118.00754	776537		916626
118.02806	883512		1040135
118.03416	829032		1059024
118.06331	777048		976280
118.06852	793815		1314315
118.07117	837271		852963
118.07404	896055		1263405
118.09433	809287		1071973
118.09696	777991		1129345
118.09981	789159		1089381
118.10448	823831		1332688
118.1047	786727		1073559
118.1051	797895		1112474
118.11847	780382		691916
118.12977	780622		684863
118.15806	786758		1144384
118.16724	785285		1170969
118.21006	963989		1012340
118.251	777108		1405979
118.26974	815235		904979
118.31604	776002		1025468
118.32562	832722		1416200
118.32959	880418		937186
118.33794	784818		1183080
118.34398	873090		878483
118.35966	988370		1088741
118.3955	897009		1104823
118.39901	797569		1021792
118.41602	879344		1110455
118.42129	788064		832043
118.45321	813376		969109
118.45766	1137568		757435
118.46643	1102303		812522
118.46752	866383		965873
118.4729	789183		1090975
118.4899	822015		1074696
118.49943	905999		923328
118.54017	775726		1245495
118.58265	909101		1063288
118.58797	905613		982064
118.60377	805357		800815
118.62722	922348		843743
118.63184	1099948		1054417
118.64483	811836		912277
118.64731	874988		1175236
118.6521	783804		1072412
118.6609	948396		834888
118.66391	775340		1244476
118.66911	906252		840699
118.67165	855499		751947
118.67464	796587		960903
118.75046	900074		854028
118.76874	871754		1118248
118.76989	791786		777442
118.80537	777017		907120
118.80699	947945		1095049
118.8236	812929		783862
118.82427	846697		1246319
118.8492	812328		917756
118.85209	843416		908305
118.89189	911687		1217112
118.89254	946919		1120529
118.90011	837223		1065739
118.9333	798951		1141090
118.94311	778822		1215589
118.95946	781398		859566
118.96272	789174		1135769
119.00677	778309		1139426
119.01283	820581		1214582
119.02621	781253		1106960
119.04802	790340		1229428
119.04884	865220		987971
119.04982	779300		1004027
119.06688	821284		1069474
119.12854	857763		808004
119.12925	776243		755878
119.13027	842627		1273030
119.16098	774114		1482251
119.1773	825506		783124
119.19426	825186		867195
119.21385	840209		838958
119.21826	785457		764384
119.24811	971521		1007267
119.27056	828776		659987
119.28617	836576		1019095
119.30577	778352		1074864
119.32189	804783		857883
119.33736	972799		1032310
119.34179	799743		883355
119.36399	799167		1120231
119.37307	799223		576467
119.37879	836894		1057480
119.39289	1011742		1231966
119.41315	824446		1215323
119.42511	790366		1190206
119.42779	856574		1187296
119.43365	836589		908705
119.48513	814109		1171219
119.49613	920572		856549
119.50212	839436		1046476
119.51011	787660		675196
119.52275	789148		1262636
119.56151	819227		1011235
119.56681	801051		1164816
119.59139	784219		676668
119.6213	792106		1140888
119.62826	776666		831152
119.65508	898682		1201423
119.67705	894905		938087
119.70453	891753		998671
119.73153	806056		899824
119.74088	789112		1116024
119.75853	796824		1157573
119.80086	773901		640375
119.81934	775799		1313477
119.82075	871175		1015964
119.82209	863223		867721
119.83008	856119		1075475
119.85013	780438		1255200
119.86379	784646		752467
119.87001	841718		1137581
119.89418	807270		775087
119.92288	820565		1136588
119.92488	782293		880924
119.92552	825157		892730
119.93793	803605		1104764
119.94046	883781		741179
119.94905	801237		1063187
119.95701	892181		885259
119.96198	928021		1063258
120.02042	841620		643759
120.02433	779812		912240
120.03404	776243		1077537
120.04409	972179		1151688
120.04469	812803		1055999
120.05593	865139		923288
120.06625	813747		1121667
120.07053	779587		843124
120.1091	1032578		902319
120.11293	780962		922587
120.12997	783842		857707
120.13716	809874		1211916
120.16206	816209		763019
120.17103	796481		853194
120.24736	843504		1082281
120.28776	959807		916361
120.2944	792447		1052264
120.30217	797887		989449
120.31344	854527		730558
120.31923	840239		1164784
120.33931	781791		1119596
120.36304	800974		1226978
120.3786	803982		1346204
120.38737	846126		1151827
120.455	796525		1099545
120.456	915277		911672
120.46062	859757		1137830
120.46685	786093		1136908
120.47126	939245		1319493
120.48411	799180		1159819
120.49438	1081484		662126
120.49756	855404		891608
120.50553	844428		1353038
120.5154	786924		1139741
120.53412	841772		766538
120.54049	899276		1164596
120.54755	817387		811631
120.55408	841523		636065
120.56843	796187		977326
120.63663	789226		901691
120.64658	827082		1052066
120.66789	773994		1478747
120.68148	795785		1220739
120.7285	808457		1013470
120.73811	779673		1022863
120.73914	794201		994830
120.73934	786633		1362884
120.75861	792104		998862
120.76671	808952		963197
120.77568	779464		869615
120.77776	784856		1084466
120.78364	942104		883932
120.78842	798024		1057813
120.79513	979816		1087812
120.80044	931432		680409
120.80082	806664		750396
120.81795	897255		809882
120.82733	915287		845270
120.8705	794471		1216456
120.89352	863494		1237999
120.89761	813478		1075520
120.90274	773542		1289357
120.90632	893414		1036141
120.93537	919238		1165849
120.977	790237		697805
120.9919	851765		1019777
120.99719	885749		841538
120.99829	893509		1093208
121.01406	850245		985801
121.01699	831493		913207
121.02343	826277		969162
121.0393	897636		1187914
121.04861	878516		756214
121.06815	886468		1170005
121.08256	846356		803311
121.12223	789155		1246579
121.15929	775011		1303954
121.17758	838691		918697
121.20744	858178		910006
121.23007	837858		1048116
121.24714	972386		1257084
121.26609	1023377		806850
121.27614	779105		1174779
121.27664	791649		1036569
121.28602	800705		1065038
121.30233	775153		1093362
121.3159	788561		769295
121.31604	806753		674965
121.32933	1016049		758709
121.34309	780656		1067173
121.36206	821152		897974
121.37337	788992		1083312
121.3742	881696		786328
121.39274	817984		1095233
121.40147	806560		998057
121.41051	805056		786680
121.41464	954991		626682
121.43033	848447		1093876
121.4373	778687		675504
121.44234	804767		902404
121.4648	949407		888141
121.46897	1013791		1103241
121.50073	858014		1059259
121.51643	786158		994060
121.52952	792830		858504
121.5417	784862		1171531
121.61546	789501		1015309
121.62303	811325		1157813
121.62516	826589		1221588
121.64351	853133		707987
121.64405	848797		909894
121.65737	803725		1027016
121.69054	932444		1137894
121.72182	858332		613262
121.73405	795484		896195
121.73552	896636		1066968
121.79586	961323		643368
121.81255	777531		957281
121.81779	812107		833075
121.83689	786554		920628
121.8463	859098		647919
121.84838	828730		738320
121.85808	792458		996274
121.9159	832378		769439
121.91759	837337		1140824
121.92108	1070041		939412
121.92897	819225		1080099
121.95494	805689		1237364
121.96681	895225		1145881
121.98847	782509		381469
121.98938	777177		1242195
121.99667	780729		1238828
122.09619	874168		800384
122.10365	814999		1084909
122.11266	862903		962326
122.11498	787079		733630
122.11604	789767		786393
122.11724	873975		862451
122.12956	788439		1129427
122.13286	821207		904269
122.14844	775767		1082323
122.17276	779031		1070922
122.18121	840775		872409
122.18423	833383		838182
122.23723	812118		1167199
122.23933	895478		871329
122.24748	773974		1390895
122.2922	779733		1389058
122.30625	773909		1234898
122.31863	819957		1047094
122.32672	858773		1199769
122.33295	782965		1198504
122.34264	1025013		838123
122.34555	917653		979164
122.38183	797877		1224248
122.38774	773653		1272906
122.42581	861908		1080322
122.47319	790036		1138804
122.48034	844980		1343837
122.5172	818643		1382340
122.54532	800531		1108443
122.57421	859075		769095
122.59324	799315		839455
122.60575	787026		836658
122.61363	789714		929895
122.61449	1133074		1024702
122.6324	793746		1096605
122.64414	990226		958942
122.6521	933522		950202
122.65678	826530		887646
122.6855	847410		1227000
122.697	789938		1193685
122.70946	791410		1024867
122.7326	909729		857784
122.75089	983729		863067
122.75738	784177		1261108
122.77713	874385		615066
122.78553	820385		799410
122.78845	918929		952251
122.86617	912208		1024393
122.8895	923904		511375
122.90657	860688		1299829
122.92069	871504		1006746
122.9221	850128		758760
122.93354	833552		988343
122.94796	807727		1114313
123.01761	864319		755038
123.04582	900223		877446
123.05079	842159		1209693
123.05996	880495		1095731
123.08368	777134		1300251
123.08767	780350		769055
123.11726	825230		1039319
123.12523	807150		1043624
123.1482	794254		926174
123.15473	817262		968774
123.16689	848782		1039349
123.17543	905710		891846
123.21937	821069		1032952
123.22076	868429		837430
123.2353	845213		715878
123.25705	883629		1297242
123.33979	941740		761085
123.34095	825036		980610
123.39624	942748		662063
123.41786	775180		1168914
123.42554	849644		1145960
123.42617	779692		1108472
123.43393	774540		1111684
123.44122	951564		932261
123.44945	784428		1181115
123.4756	787772		767525
123.48408	827820		986316
123.52075	840203		1246695
123.52334	885547		1065260
123.52387	787019		977444
123.52552	1033803		935707
123.53643	885387		1052232
123.56343	943179		805198
123.58023	873595		819204
123.58206	877755		837399
123.62196	819627		836960
123.63446	817003		825601
123.63967	784395		939752
123.6539	864842		1345233
123.6572	816138		1052461
123.66485	779626		921180
123.67894	870586		800932
123.69822	785418		1207900
123.71074	774218		999427
123.71351	825962		1220598
123.73326	810346		768842
123.74335	842938		892004
123.75338	780522		1036162
123.75386	815722		882330
123.75656	827978		959402
123.78898	821450		1116054
123.79409	1055946		789183
123.80568	885802		1210853
123.82351	786761		1005531
123.82802	842601		1144868
123.85557	792553		1201177
123.87472	983209		891383
123.88889	882089		904587
123.91336	847657		978791
123.92063	829481		1103755
123.92129	843049		921449
123.93473	953289		727901
123.94545	781913		854768
123.95688	888905		1092712
123.97155	779689		1133097
123.97879	803593		811406
124.00383	780041		1049048
124.03235	835056		679871
124.0384	801384		1185631
124.04308	965688		738640
124.05454	814952		1212612
124.05987	842200		753328
124.06137	863272		1227996
124.0804	828808		1310304
124.0923	778568		1034224
124.11732	900400		606299
124.13423	916904		827695
124.19936	1001576		1100076
124.20633	781224		1114279
124.21873	796584		1120981
124.22981	879079		1022623
124.23874	807271		1148706
124.24292	777031		1065638
124.259	938855		947824
124.27808	830887		1315538
124.28579	794247		1042937
124.28814	787431		1143755
124.30279	986567		866738
124.32915	888935		1200412
124.33373	804679		965902
124.33569	815031		936350
124.33901	791335		1060162
124.39061	789927		768098
124.41005	812391		1160591
124.42005	790663		760347
124.44689	827079		1117268
124.46596	853239		792737
124.47695	835303		990239
124.51202	777862		1103055
124.51703	796614		1090219
124.53423	892006		970563
124.56238	853414		1129736
124.58856	976550		869924
124.60558	958758		1082184
124.62835	868582		858429
124.64105	775622		824685
124.67072	816870		847094
124.68659	785910		763247
124.73554	775366		856794
124.75456	817510		1140981
124.77925	773830		1165129
124.78173	835606		628477
124.79383	814118		1051899
124.80743	828342		856837
124.81335	793942		829070
124.82364	803686		961695
124.8319	788166		1057668
124.83497	945798		1220278
124.84441	898390		853284
124.85194	924422		1064641
124.85383	804966		776539
124.86342	820550		1193360
124.87219	861254		940438
124.87373	785702		1150913
124.93057	794965		834733
124.93778	963909		688412
124.98405	996101		1118420
124.99943	821301		724009
125.01629	790733		735862
125.03186	785285		1069270
125.07466	828805		1113122
125.08496	788229		1005138
125.09066	822277		1053786
125.11613	793413		961694
125.11656	902533		987363
125.15091	826693		896673
125.17413	797637		977542
125.19819	814277		938218
125.24948	832805		1140674
125.26236	885637		1294767
125.26368	788485		1100034
125.27409	790213		1027752
125.31958	791541		828340
125.34763	797285		1023654
125.37679	805925		1024265
125.38884	1024613		972243
125.41908	855493		874214
125.44844	835845		1160111
125.468	848293		1046579
125.4878	775733		942168
125.49308	839781		1102885
125.55894	783557		991238
125.56208	817093		1086312
125.66293	801861		1187746
125.67811	842237		476386
125.68301	818277		1257362
125.70039	801605		821815
125.74828	780813		562507
125.7499	781669		941289
125.75414	820805		830555
125.78392	812325		871147
125.78463	818085		1135441
125.80321	788069		1093748
125.80411	793541		1143915
125.81166	774381		677654
125.81525	800901		919805
125.92361	784837		769950
125.92376	801637		918469
125.9595	936805		1027512
125.96186	838565		1181592
125.96252	808773		759102
125.9845	911781		989110
125.98572	796165		1099282
126.01641	846534		829207
126.08307	1011046		874197
126.09845	983174		1125823
126.10809	787462		1219925
126.11265	786598		977336
126.11665	781766		695769
126.12408	818022		762262
126.12572	816518		867406
126.12888	842086		791497
126.15102	800742		1012381
126.23366	847990		756782
126.23529	810982		931198
126.27415	787790		561039
126.31845	785126		1329945
126.32366	808838		970585
126.34109	886854		967345
126.34353	940038		803691
126.37695	796647		909770
126.3784	811719		1308706
126.38585	780855		784164
126.38798	867655		862364
126.39611	779687		997800
126.40954	789575		707526
126.41174	818599		770783
126.41872	774663		897431
126.45977	807655		868082
126.46955	775495		1140190
126.48427	926855		899340
126.49774	779719		1090110
126.50797	1220359		697271
126.53896	985063		787777
126.54178	892295		1018717
126.57762	924423		925995
126.58315	845319		1270256
126.59442	810007		764440
126.59569	1057671		908434
126.61459	777927		1230219
126.64414	797416		1097198
126.66868	823400		974595
126.67128	819880		990376
126.71153	861800		890032
126.71479	844488		1143469
126.7261	847080		893733
126.77499	789064		1012882
126.77894	783736		843037
126.79858	837512		1135173
126.81221	883048		1122875
126.86692	884585		908246
126.89662	926057		1045649
126.93436	819833		603303
126.95636	837193		915822
126.98817	823689		1155857
126.99724	794953		1234776
127.04898	775658		1065876
127.05431	1005098		701727
127.06766	777578		950873
127.09005	852490		1003289
127.09401	822186		735811
127.12177	1076522		947943
127.12308	886634		710831
127.12492	780922		655989
127.14952	821482		934705
127.17003	820346		799656
127.17637	945450		1011624
127.18163	1003754		883880
127.18646	823115		1182589
127.20275	812811		1056862
127.25286	872171		565747
127.26734	811723		582609
127.26902	854539		1035996
127.29748	846283		997844
127.30017	777643		701176
127.30525	782939		813773
127.30668	776843		960282
127.31733	820139		1052162
127.31986	845323		855125
127.34793	850892		1089823
127.35776	788620		1254694
127.35928	801836		946917
127.4105	894764		1034572
127.41908	779628		754403
127.44702	784908		952429
127.49851	1236685		993895
127.51425	909805		1007635
127.52173	773933		1044001
127.53278	796941		979299
127.55373	805821		860157
127.55735	816557		1225632
127.56701	975309		1145142
127.59748	807822		1124667
127.61412	778734		1139435
127.62159	908238		1003986
127.66025	781678		1011924
127.70199	1040526		817903
127.70465	842670		1221097
127.71936	907439		646680
127.74015	842319		870199
127.77544	864879		880809
127.79728	773551		821540
127.79816	1031823		691746
127.82608	783887		1413602
127.85862	809856		730992
127.87475	887888		1244664
127.87617	943120		1162424
127.87661	834896		870010
127.88019	897584		978434
127.88389	815952		990948
127.89293	777200		1010047
127.91192	808048		950487
127.93334	778416		1018218
127.93775	795985		965988
127.95789	797297		1128129
127.96096	781873		1086599
127.96189	959537		844625
127.97174	816769		522918
127.98748	800689		921305
128.01118	798865		1076443
128.0237	821457		1089777
128.02963	793537		817908
128.05546	858450		877507
128.05873	1068050		796194
128.09904	817682		1035935
128.10611	959794		1019036
128.10832	834706		1156790
128.11117	957906		958789
128.12722	791426		748513
128.12778	989426		803387
128.13923	957491		983446
128.14081	923587		755383
128.15113	837171		1088293
128.1637	864051		1116436
128.18156	825267		922454
128.18265	790227		841911
128.19194	825363		670504
128.19395	903875		752293
128.19533	774331		537211
128.20917	793363		1058124
128.22052	797139		1086822
128.22895	820083		1233705
128.2368	809076		1199225
128.26181	805588		1072335
128.26372	780564		1013609
128.27198	785300		912883
128.28433	952596		807011
128.30193	798644		919508
128.351	819093		964096
128.35922	845525		942136
128.35983	856869		582392
128.3669	811733		723536
128.38045	776597		1333083
128.38771	937493		524822
128.43408	833142		1024366
128.44296	784854		833147
128.45554	887670		863234
128.48225	885366		893336
128.49362	783302		659355
128.4951	790870		694632
128.49961	874823		630925
128.51036	822487		752702
128.51503	889399		936632
128.53566	824535		900407
128.55059	848567		1009862
128.55213	818455		1014976
128.57069	846263		888336
128.57685	793623		1151576
128.57904	930455		773474
128.62426	777944		1147372
128.64726	901400		832107
128.65732	816856		931486
128.66282	853465		908994
128.66339	828953		1227835
128.67482	854553		909647
128.68485	799737		549557
128.68958	873433		607976
128.70252	790457		1140145
128.70449	812633		1221980
128.75269	891066		787015
128.77799	902890		752365
128.80758	861274		828693
128.80939	807994		870386
128.83249	821483		599734
128.83296	1116635		1065369
128.83987	922843		800797
128.89455	799612		1030467
128.91236	792124		1123716
128.91572	806940		728930
128.96565	778556		792864
128.97019	775389		913578
128.98464	931101		967622
129.01002	814781		930063
129.02115	861469		943654
129.0228	814493		1248168
129.0543	827326		806831
129.07851	802494		917304
129.08108	774238		849573
129.09096	775390		809772
129.0943	778622		1187735
129.14795	945823		1207070
129.15032	848255		1059004
129.15418	796351		943175
129.16255	1097823		766315
129.19295	816544		1030387
129.19441	789728		1232960
129.21896	792432		1030603
129.23399	800784		662992
129.23804	808032		569101
129.26412	797057		840592
129.2827	831937		1036297
129.28324	777025		1018952
129.31921	786082		807101
129.32761	917474		1147173
129.36624	844226		1039153
129.38688	789027		1152950
129.40128	781571		1240161
129.40676	787779		1017999
129.41113	794627		791671
129.41391	843643		531817
129.47375	815620		767511
129.48143	845780		763635
129.49189	862948		772341
129.49274	801220		1162391
129.49784	875972		990534
129.50049	780261		780666
129.52062	883045		1133006
129.58974	825894		1036351
129.59597	806310		1241856
129.60936	851174		891535
129.65091	806055		781745
129.66059	802215		841954
129.67187	839911		892610
129.69718	809928		1043258
129.70555	868648		728004
129.71049	787880		833161
129.71568	798056		848658
129.72662	787112		1034563
129.72886	780264		852100
129.74135	776489		1337865
129.75852	862121		837110
129.77336	807593		897608
129.77819	984297		938574
129.80661	920554		941847
129.82693	868138		1002503
129.85961	896619		1011475
129.86875	803499		1341664
129.9069	939547		742912
129.91259	787260		728923
129.94989	800268		1061280
129.9521	916748		1020399
129.95947	874220		808023
129.97409	922285		888771
129.9862	789677		1168687
130.03462	846734		975467
130.0363	839310		628117
130.06487	793390		742615
130.06546	957582		906815
130.09551	827567		1098178
130.11857	882991		955781
130.11978	902959		1178622
130.14952	827552		549864
130.17509	919792		1045626
130.21407	875441		1112588
130.31029	915475		979544
130.31093	785907		1007234
130.31974	828019		1292193
130.32758	809971		1137817
130.42161	817589		837019
130.42474	787253		777832
130.43691	944470		470893
130.46092	774262		936110
130.46942	802358		987209
130.4935	780023		733277
130.52897	807671		1334837
130.56118	813624		729385
130.60471	854201		1098572
130.60496	904505		1093148
130.61814	854521		979567
130.637	996538		962189
130.63732	782554		1125755
130.66059	847354		1006548
130.67032	804730		965890
130.68673	777243		1071762
130.69399	789195		452700
130.70832	882363		974462
130.70933	814811		910671
130.71115	841339		856607
130.72427	867036		1067635
130.72595	773500		786574
130.76655	820093		851249
130.81064	787358		1078915
130.81751	956414		723791
130.83011	872766		1181385
130.83257	846222		721627
130.83322	850974		867891
130.85034	1115134		940086
130.86673	996895		687034
130.89067	774239		1119551
130.89421	795967		974966
130.91064	811040		1000872
130.92104	888448		1005475
130.93119	830080		778104
130.96197	842561		881799
130.96377	846241		804472
131.02277	776290		1050197
131.11583	826181		868872
131.12808	796869		931656
131.12847	925157		809709
131.14496	865797		944530
131.19223	845542		814286
131.19253	867702		596621
131.22354	863079		891628
131.24488	861288		869762
131.2614	809992		801228
131.26433	838984		1146748
131.27233	815944		699105
131.27302	909704		727628
131.30513	824297		992134
131.30598	836841		871902
131.32153	852041		894678
131.32218	919561		1083642
131.35738	787594		772839
131.36003	832762		638943
131.37339	951659		792366
131.38158	839275		837456
131.44555	775629		1052080
131.44891	847885		1150084
131.45792	1048269		977614
131.48321	804109		902847
131.50348	811358		690057
131.51352	821278		681002
131.51846	791438		1165575
131.54798	774079		469597
131.56873	831376		742129
131.57202	1029104		813520
131.59203	916624		820525
131.64267	823794		681500
131.68664	800499		1116349
131.69309	794291		820631
131.69802	874259		1190111
131.73265	777108		1022682
131.73614	780724		795081
131.74235	866772		1193458
131.74905	850068		1187658
131.78197	822453		1061981
131.78804	929557		1010127
131.79444	804822		1147536
131.81651	967254		1058208
131.84387	852087		999136
131.91636	932345		886196
131.93043	943705		856355
131.97303	782394		798154
131.97517	1133019		675564
131.99892	802891		660951
132.03461	820060		513286
132.04229	875452		1019611
132.04496	777004		635301
132.0757	815837		1174612
132.07974	867197		916182
132.0805	787197		1056495
132.08644	921470		891270
132.08747	940254		779798
132.106	825166		605885
132.1295	876527		645992
132.14106	824351		800608
132.14603	826143		614159
132.19128	818433		816772
132.21996	870977		1029069
132.22384	792642		1116169
132.30163	834404		1154570
132.30391	844836		1356760
132.35864	809670		859927
132.38766	813350		542937
132.38792	856614		1057762
132.4121	888295		817726
132.41823	824679		1057211
132.49364	814346		954131
132.50048	799466		989973
132.50863	810282		906457
132.51609	811114		1083164
132.51751	775530		834399
132.52514	779179		1080906
132.5725	863020		652210
132.60874	1088301		917696
132.61269	867149		1003069
132.66974	827823		874043
132.7032	790768		1240070
132.72481	803441		521828
132.73587	863665		834842
132.74073	892145		1037025
132.75127	856530		1014418
132.77025	780530		940849
132.82338	971092		502613
132.8477	823029		950741
132.84858	802549		989071
132.86493	795125		831872
132.86699	923861		671865
132.87666	911542		827272
132.89865	863574		1002467
132.90044	929334		1004009
132.90213	864246		858276
132.91219	849207		1071378
132.91871	782455		1267048
132.93781	793752		999031
132.94537	836696		1001172
132.99219	868633		834273
133.00667	852570		946844
133.01455	911418		708861
133.03389	898683		782692
133.03885	896427		699883
133.07093	810428		765221
133.11458	886269		825803
133.12599	782014		704754
133.15606	852975		594786
133.16309	976383		826053
133.17599	926687		869959
133.17839	811040		734401
133.18376	885696		899739
133.20401	793888		947401
133.20719	925952		827224
133.23038	829665		748595
133.24057	938242		955029
133.24371	985570		888108
133.2698	926915		780849
133.273	1085987		816877
133.2881	829475		846817
133.30103	967460		876950
133.30429	807428		1148416
133.32854	778789		972418
133.35948	881542		511357
133.38509	784359		959621
133.38611	801703		863446
133.3941	897479		809771
133.41826	797896		941199
133.42367	855880		904753
133.42847	819912		1141209
133.47056	786282		1014397
133.48854	872138		982961
133.50585	806731		1240551
133.53	775052		1102731
133.54678	784140		620037
133.55886	814797		840605
133.55965	850349		887537
133.57212	856013		861689
133.60194	879886		1130240
133.63414	790703		845637
133.6534	824720		1081965
133.65414	778704		1146294
133.69761	821538		700308
133.74561	909908		956797
133.75061	997140		920202
133.76354	864340		1033669
133.78633	875925		761771
133.79614	830453		809831
133.83817	776055		971855
133.85174	839383		902896
133.85666	777048		802479
133.85898	893016		813305
133.86181	855608		782709
133.88071	979225		936704
133.89815	967001		899275
133.91297	902426		918902
133.93076	918554		866252
133.93386	801755		1008134
133.95516	820667		907137
133.95533	808603		750417
133.95691	809339		933725
133.98758	857501		919689
134.01343	808542		1194541
134.01828	773534		760426
134.03578	788126		1043831
134.04527	828671		933897
134.05133	832287		822646
134.15332	831619		746595
134.15815	787811		1115437
134.16098	837507		868814
134.18869	784484		1132622
134.19875	786373		795246
134.20084	791109		926346
134.23376	788998		974038
134.26679	780231		980315
134.3172	788425		807083
134.34628	877643		887104
134.36478	779915		712935
134.42507	894894		814166
134.42618	839278		1157868
134.47523	778768		809903
134.47572	857392		997748
134.49217	818353		1096052
134.54872	782003		803889
134.55295	777779		1278137
134.5592	821475		537831
134.60989	791605		935341
134.61322	851845		620709
134.61874	936438		897392
134.64553	855031		972838
134.68105	787736		921730
134.68298	796056		874601
134.69893	857433		906271
134.69966	877625		922214
134.71285	849914		1032011
134.71801	801882		852689
134.7278	790010		717309
134.78443	827613		565787
134.78817	797405		798876
134.81522	800190		969740
134.81676	825566		972276
134.82215	779934		933332
134.87999	809313		958954
134.8818	821537		909010
134.89554	780193		829556
134.89977	860226		979918
134.90178	822850		680780
134.90993	826914		898562
134.96661	834181		1079182
134.98808	831109		1194883
135.05117	916040		822429
135.05993	819305		884786
135.0613	927433		1170656
135.09257	840138		852120
135.10076	773514		838650
135.10548	774459		574270
135.11167	784267		833955
135.13304	813388		1140091
135.14389	827692		577628
135.14696	887100		685338
135.16422	863597		974208
135.18901	785390		1028228
135.20159	781647		949998
135.25414	846001		778380
135.28858	814931		1145326
135.30923	986228		698215
135.32704	927861		768530
135.34252	800597		718721
135.35508	851766		819268
135.38917	859463		688646
135.40847	870808		783268
135.4146	783481		795713
135.41765	847801		959041
135.46025	909123		567853
135.46739	823579		1056083
135.48856	831260		695401
135.50525	788253		1074265
135.50882	1020637		793159
135.51605	786813		929764
135.54164	785502		915071
135.57346	866080		775967
135.5742	787664		574456
135.5756	817248		972705
135.58313	843680		1096839
135.58343	774848		669881
135.59431	776737		795917
135.6088	788162		856094
135.61498	802146		1238336
135.61602	816098		1089388
135.62398	779106		1181810
135.62774	918050		1102331
135.6336	946083		660963
135.65586	865892		874777
135.69768	788102		929345
135.71803	836551		836433
135.74608	924264		724953
135.74821	775656		1074794
135.75179	823080		989080
135.76107	850633		886462
135.79649	842922		1011825
135.81219	809515		695337
135.91527	783632		878684
135.97475	913075		701457
135.99148	865716		688365
135.99431	787604		813412
135.99744	957908		689434
136.02479	917846		707232
136.04156	904950		1093212
136.04742	889271		981006
136.09088	917433		1020170
136.09878	777721		1271736
136.12516	826715		425337
136.13533	814715		927680
136.17369	800381		1027029
136.20757	892511		841102
136.22319	871904		604935
136.25153	867681		884373
136.28508	793923		891431
136.33089	1022085		753251
136.34363	789702		1070900
136.35426	896518		1038926
136.40216	811465		828775
136.42431	885770		808125
136.45795	807308		865038
136.48765	827341		752768
136.50946	831374		1028550
136.51219	800814		809523
136.5332	838576		853987
136.60718	863187		966564
136.64082	784053		990971
136.64875	788054		868543
136.67484	787607		657501
136.68671	852760		1262271
136.696	944216		881592
136.6988	775048		588701
136.70771	824121		819503
136.71822	972761		929680
136.72501	854042		1049156
136.72529	912282		1002417
136.73165	785178		1236786
136.73574	812826		1037673
136.73616	830938		777148
136.73951	879802		818042
136.75762	962715		1000472
136.76744	792252		748884
136.79432	866589		901695
136.81282	808542		965636
136.90421	803555		601475
136.91834	795108		1087041
136.94491	881830		688481
136.9566	995846		645485
136.97383	1213991		1043577
136.9757	800807		970305
137.09794	865006		973846
137.1013	849550		671208
137.14465	840097		714079
137.16976	782322		848562
137.18652	884723		813369
137.21074	808308		1069916
137.24123	781686		1070993
137.25651	873143		975176
137.26455	820727		688623
137.27884	781176		1023254
137.29998	809945		721315
137.30119	930362		837202
137.31697	835514		860740
137.34945	933884		1064181
137.35138	789436		1015175
137.36262	794397		773678
137.38488	803038		960852
137.44387	830274		959430
137.45192	844162		987716
137.45495	796162		1122313
137.45698	871779		710648
137.46927	826435		582088
137.47912	776740		816461
137.48405	796612		1023122
137.51173	1040646		771721
137.51369	796198		743662
137.52687	774023		1128535
137.52768	774631		785616
137.53319	855335		905109
137.55311	808968		1034405
137.57678	868490		891715
137.61267	918860		907910
137.64426	923597		875945
137.67532	782223		1129923
137.68401	810544		725942
137.69948	839761		972848
137.70629	851025		694976
137.71774	906194		731710
137.74736	776948		652714
137.74967	892116		875706
137.79612	1027031		893692
137.82187	986200		872698
137.82589	838712		883039
137.86371	858299		708603
137.86441	821851		896313
137.88633	775804		936760
137.89378	980604		660236
137.92707	781342		1145777
137.93041	837279		1114725
137.94092	786751		907128
137.94317	901919		847699
137.95466	779680		1080358
138.03118	778149		1148506
138.03672	799397		891384
138.04844	808230		1080088
138.13661	780395		692357
138.14242	816620		1022522
138.14366	803436		765056
138.15041	839916		840025
138.16035	967373		756491
138.17611	936494		741323
138.18241	811790		879174
138.19064	825903		964875
138.23882	791090		959777
138.25222	822323		921164
138.25919	811891		857579
138.27206	805172		1125034
138.28067	884116		709625
138.3179	781463		747107
138.36832	802138		853046
138.37086	789050		965814
138.38952	789435		647836
138.39639	926396		934951
138.41342	775101		1108662
138.41612	837405		856422
138.42284	843965		727788
138.4366	807294		1203952
138.49071	888386		666810
138.51428	951939		839076
138.52657	814084		1117026
138.54033	853637		1065587
138.55545	935174		856968
138.5591	792294		819737
138.60274	894953		813878
138.62784	788107		964692
138.70742	775920		885928
138.71529	822288		1066708
138.72197	835665		1225657
138.72366	906449		925732
138.72642	781657		631077
138.74246	860434		658305
138.76106	776115		975148
138.7833	1039829		720279
138.8013	799574		671911
138.85511	962586		979901
138.88035	773787		916395
138.91386	802814		680947
138.96944	890145		991222
138.97213	981345		1089038
138.97236	908002		761064
138.97916	781218		1014946
139.02477	784293		845458
139.02843	856005		825794
139.05934	877991		756261
139.09616	810986		984779
139.10545	1016171		826388
139.13518	794029		917433
139.14229	820525		617129
139.15607	799758		854506
139.16108	805550		593998
139.18018	839152		879173
139.20074	839985		726197
139.21747	810738		971421
139.22273	803571		1037759
139.23704	826548		998795
139.25195	1066165		628776
139.25254	805621		1018085
139.2748	998774		695302
139.28829	895991		646556
139.30423	934136		906504
139.35049	809675		551746
139.35462	819580		1037478
139.36147	775484		961491
139.37029	810109		996218
139.37854	837885		918011
139.3995	785215		1036767
139.4135	776064		1004423
139.42049	813696		651486
139.42934	1007937		822532
139.43228	926081		1035207
139.44582	950658		937426
139.44662	779266		595663
139.44928	940354		965034
139.45612	808211		522160
139.50948	847623		979040
139.51136	803463		648878
139.53656	931913		777206
139.53831	1004713		721570
139.56149	822634		781819
139.5821	777932		1002153
139.59637	800077		1041930
139.63159	808943		854063
139.64194	789904		961969
139.65971	938193		856137
139.66103	1022993		790348
139.66961	840146		906089
139.73369	816503		816324
139.74109	896151		962641
139.76481	835417		869998
139.77067	784537		1013028
139.78725	782683		846818
139.80437	821596		1025405
139.80498	834332		899951
139.82841	854686		1003479
139.83101	821022		845216
139.8511	787807		835559
139.89221	790530		846865
139.8963	786851		920793
139.90373	900099		768714
139.91146	823844		986034
139.92952	803269		812433
139.98669	814249		959753
140.03514	900653		995027
140.05132	812174		779903
140.06191	778767		702052
140.06426	787983		886143
140.08062	816304		913974
140.08865	969617		737816
140.15466	825782		1248707
140.1804	778136		719448
140.19255	821497		1026954
140.20522	803898		933109
140.22156	858507		603631
140.23295	773884		1190836
140.24864	782397		1170384
140.26913	824126		961027
140.29131	869504		1055524
140.29917	857665		922903
140.32499	829635		1028030
140.3388	857924		871256
140.35716	874373		983580
140.36903	849862		1283387
140.38781	919880		973031
140.39108	780712		824092
140.39471	837896		438946
140.45673	866317		880559
140.47341	824078		999842
140.47754	832814		686662
140.48708	869039		797289
140.52275	816978		985687
140.53965	800243		836296
140.55388	901940		718655
140.55977	819157		758100
140.56506	787797		696477
140.59091	871447		532205
140.59139	806071		788083
140.59886	888056		681838
140.61046	781369		856325
140.61084	822553		895210
140.61806	901465		652021
140.63282	791387		905715
140.63658	860891		791913
140.68163	940190		714836
140.69343	974303		780028
140.70989	797921		765112
140.79942	791464		645413
140.83978	800107		771012
140.84686	816171		970940
140.87601	819118		1005600
141.09804	796608		850296
141.10842	871521		735501
141.12899	817698		564209
141.12955	790130		639549
141.14092	835939		742450
141.18809	898567		631693
141.22106	786570		1023101
141.23438	789355		839358
141.25055	895756		837711
141.29319	776336		813845
141.3046	790673		952440
141.30854	793553		728911
141.30877	859185		521195
141.31783	885458		1112771
141.3293	780435		989217
141.33784	805524		892036
141.3772	846487		884342
141.39949	804121		972089
141.41074	793530		813652
141.42516	917723		1144731
141.43926	820844		605428
141.46254	776702		850079
141.47761	813063		499259
141.48466	802272		1093062
141.48594	813792		820631
141.50471	803362		806543
141.54848	884709		953216
141.5682	862407		737418
141.65853	786223		1071523
141.67809	787664		767922
141.70992	840307		786166
141.71214	909555		769798
141.72103	825172		723022
141.79738	850171		1066876
141.80069	834587		516874
141.82584	949565		1075003
141.85883	801088		746871
141.86001	876672		1021413
141.87161	863969		764186
141.89021	788803		949987
141.89957	862339		829102
141.91517	873605		807265
141.93131	893062		1028002
141.93568	801703		525083
141.93647	803655		911946
141.94477	799687		922845
141.96405	819081		961055
141.96486	824009		853196
141.96545	843257		631844
141.97668	804810		1018301
141.98705	811147		680304
142.00113	856428		783419
142.06216	787026		970327
142.08978	799380		850727
142.13659	783448		1331633
142.13942	778264		834623
142.16984	787163		895763
142.17934	799836		744724
142.18891	781149		736240
142.19242	845853		782585
142.22263	787168		959591
142.23465	861025		906983
142.26552	973732		915605
142.28317	859557		1089101
142.28576	873222		799127
142.31343	867752		1035790
142.31961	794185		648440
142.33934	846890		1004903
142.37411	799662		589072
142.3744	778062		727914
142.38377	877998		850000
142.39377	919151		767345
142.40928	852145		807554
142.42522	791058		720405
142.45368	780149		1033801
142.46015	896949		847456
142.47006	794518		662268
142.49826	864697		724721
142.5014	862041		715606
142.52178	841867		503386
142.54473	780253		670771
142.5745	815488		710988
142.63065	881157		781630
142.63509	825093		1065736
142.63544	782341		998616
142.63771	970886		841018
142.66021	818664		773799
142.67022	963657		934272
142.6795	826826		1057269
142.68735	839370		1045718
142.72151	809805		883553
142.7449	849136		718791
142.74667	905616		672077
142.76254	797521		955227
142.78122	928659		884735
142.78268	850547		770820
142.78878	971092		505286
142.81589	845846		848804
142.83956	997048		657239
142.84463	841049		825787
142.84614	900953		908049
142.92094	1093408		826478
142.92681	797281		993703
142.94341	827426		912785
142.9701	900869		809908
143.02533	787626		919246
143.04741	856108		1027532
143.06313	1013870		697751
143.07627	780143		585918
143.08348	982000		631437
143.09427	978129		695794
143.10361	816625		897553
143.1052	853810		735863
143.1129	878962		727819
143.11988	793939		777701
143.13298	790516		818506
143.16643	797207		718568
143.16823	840824		874309
143.17642	781944		1009930
143.20661	800475		798514
143.22471	907517		723223
143.22517	864317		868265
143.24996	843584		923199
143.35756	1017162		748722
143.37068	836619		975089
143.37189	867467		901926
143.38854	780045		618517
143.40838	860111		823811
143.41849	787792		782991
143.42212	788816		1026422
143.46337	821588		852939
143.46638	986901		846527
143.49034	810647		761394
143.50565	896345		722427
143.52672	780155		795249
143.5532	838749		959125
143.5543	786877		696245
143.60847	854051		1162044
143.6087	932643		916404
143.61443	848547		1184191
143.6254	806948		857217
143.65962	899496		850299
143.66937	788585		792992
143.71129	797069		693245
143.71487	781677		655290
143.71561	798701		960427
143.72525	866158		1096537
143.73105	836975		881220
143.77556	785779		799775
143.80801	780055		684977
143.83969	827066		961577
143.85637	831163		894309
143.86488	812380		540018
143.8652	865660		949385
143.86935	782141		834630
143.88844	862719		633275
143.89117	777535		1046934
143.91638	955458		833942
143.95786	780102		693872
143.96334	788678		733237
143.98895	830793		819256
144.03723	1057038		617972
144.08217	831698		553613
144.10433	828597		781088
144.11059	806997		817891
144.12063	933590		746093
144.13228	791992		612078
144.1445	878489		1095739
144.14473	858969		857725
144.14654	807193		985364
144.17619	827740		734251
144.21477	918624		760058
144.2601	825189		998193
144.28396	827815		1192196
144.30284	791017		831332
144.30975	786762		760769
144.31043	800650		841600
144.33322	1063596		881145
144.37282	779761		602430
144.39043	776818		937526
144.46989	810683		874493
144.50967	821055		942289
144.51695	831328		794446
144.51783	901376		856348
144.53641	784546		788075
144.54246	833666		820439
144.58311	779975		819008
144.59984	825480		974848
144.62524	856843		610155
144.64368	890893		797190
144.65197	1048078		903402
144.65893	782543		1066813
144.68436	791153		663947
144.70592	836532		732759
144.71203	777620		933341
144.71518	785429		864532
144.74209	821304		684580
144.75023	1001752		561222
144.77047	878235		908497
144.86785	794981		852544
144.86889	848293		948649
144.8916	818248		589192
144.90327	940201		768254
144.91987	777579		596218
144.9419	786413		955765
144.96445	812336		1052074
145.01292	782837		935098
145.01411	956021		959469
145.023	781974		841090
145.02483	889270		815380
145.03491	916791		561986
145.03975	826936		647443
145.04357	851400		492975
145.05788	879354		805006
145.06836	871163		719911
145.07867	831516		686135
145.08022	835548		764667
145.08677	784509		805990
145.1435	834627		906902
145.16241	886533		1077631
145.16265	912133		841712
145.18217	802439		878940
145.19385	798729		885013
145.19642	813833		605811
145.21277	966091		680919
145.2611	843376		715317
145.26275	863760		815717
145.26631	859409		1000769
145.32464	818071		913143
145.35084	818458		900129
145.35655	891355		657584
145.37293	915612		776579
145.37468	839069		879883
145.38963	808158		727818
145.42476	866434		722751
145.44023	792004		772913
145.45635	829286		817759
145.48398	829737		1253543
145.5321	829230		950287
145.53276	791534		559388
145.53768	901359		895525
145.57818	780179		883261
145.68632	777504		782070
145.69664	831361		648948
145.69942	781633		883105
145.7912	780812		1034629
145.80396	783821		970564
145.80714	827053		460905
145.80891	792526		873415
145.81164	1001422		821687
145.8161	884654		601369
145.83662	1143185		882322
145.84028	931473		834521
145.84168	912913		763313
145.84323	824849		1016781
145.84487	979570		649594
145.84618	815698		1176621
145.8466	835986		903575
145.84744	801426		977556
145.8527	799955		881632
145.85342	782419		556553
145.86149	863700		990951
145.8816	907158		872985
145.89693	918552		774946
145.92794	828059		786394
145.94168	847133		923536
145.94662	913245		772707
145.95714	807455		771464
145.97887	795361		563614
145.98443	908770		948108
146.03551	927464		849518
146.03839	778600		1117776
146.04009	781864		979028
146.04235	834152		719763
146.05169	912617		762036
146.05488	940778		870268
146.07861	952173		928566
146.08762	801774		873943
146.09529	789135		784162
146.11689	818737		946648
146.12025	808753		770107
146.15033	871157		908363
146.15497	800853		733187
146.15703	883318		1138761
146.21802	823981		477963
146.23562	991487		793750
146.25317	779265		899378
146.25601	886209		718127
146.28798	802405		708180
146.2883	824133		877724
146.29465	791174		746286
146.30561	788807		595919
146.34185	904971		1063126
146.34789	869836		535115
146.35318	884653		626260
146.36477	781070		1015538
146.38814	841841		670954
146.3953	857938		816411
146.41958	791541		672086
146.42161	791285		792595
146.44759	827352		845524
146.48065	910748		851399
146.4952	786781		1102128
146.50481	811167		568607
146.53856	923811		814221
146.57188	792999		1049956
146.59199	785385		866480
146.59633	845738		1023346
146.6074	904299		966634
146.60947	836075		703777
146.61169	810411		833950
146.61568	792556		869211
146.68005	898484		935941
146.70156	915510		807816
146.75365	814844		838536
146.76945	862814		566006
146.77485	788543		771428
146.78083	816736		637624
146.78763	839873		697811
146.79244	802337		511076
146.8542	781193		883079
146.85527	807017		829755
146.87437	854283		598656
146.88487	816588		883868
146.91958	803600		681287
146.92926	851794		650566
146.93446	857746		888817
146.9369	808851		938606
146.95312	973781		857858
146.95633	831061		783887
146.96186	793110		926912
146.9747	782071		742155
146.9763	809655		786614
146.98591	798041		885924
147.02239	789149		787120
147.02288	793309		640074
147.02626	972317		694245
147.03291	911198		747262
147.04365	800608		943213
147.04415	852704		1037457
147.04919	887904		841243
147.05339	849313		903176
147.07576	811428		811320
147.08568	796709		887219
147.14459	793708		1220416
147.14887	789613		743369
147.16749	860783		891364
147.17505	782000		861204
147.2614	819898		700360
147.26689	781467		557114
147.27957	819709		917389
147.28736	858110		873440
147.30524	928000		666692
147.31928	897794		714229
147.34131	804932		1001569
147.36001	814407		879771
147.41007	840845		1066794
147.41055	870157		1064636
147.41372	792589		893790
147.42664	803279		656247
147.45932	799763		1020773
147.46356	788916		556870
147.4719	789941		759659
147.48879	839319		835183
147.494	894615		1054802
147.51704	882650		742227
147.56134	813216		925494
147.56263	937056		782918
147.56857	805217		614035
147.57696	801954		780038
147.58088	927138		856072
147.58522	804707		1015030
147.59051	871012		843793
147.61247	791718		869225
147.61314	832438		524346
147.61806	873575		819808
147.63208	835561		1024149
147.68638	844208		901280
147.75448	850936		909238
147.78175	869052		669974
147.78424	930492		894196
147.78481	891580		764531
147.81844	793536		959279
147.83941	809731		913789
147.85802	778309		933858
147.8627	874950		901580
147.89735	799626		859933
147.91686	804941		894949
147.93536	850639		798500
147.97795	874581		701770
147.97864	905429		846625
147.98525	893270		857318
148.00157	803672		792419
148.00653	782808		1036368
148.02401	840411		980396
148.10545	806117		965587
148.11785	798023		702016
148.13145	814537		721376
148.13541	794665		636123
148.18852	809200		681265
148.19305	846577		1110486
148.21271	792883		1102586
148.21572	901748		979832
148.27222	799547		935971
148.29029	874877		877102
148.31308	908800		891422
148.32672	905602		809006
148.35664	789126		912937
148.42216	900047		691011
148.42774	876047		819867
148.43817	834257		849536
148.4514	902354		919971
148.46217	782356		931434
148.50987	796090		705234
148.51057	800986		907291
148.522	842076		900786
148.54017	907038		791589
148.54819	792607		808021
148.57124	795810		939324
148.61075	791143		679975
148.61213	816552		876067
148.64577	844588		1115047
148.67569	895408		836278
148.69422	810610		875973
148.69993	816627		707528
148.72688	794615		870088
148.74673	815993		921752
148.7567	821883		838558
148.76094	955643		714528
148.78227	846110		496259
148.79168	895743		941363
148.81287	783170		611662
148.84796	835079		577896
148.86384	779721		901911
148.89839	813518		841039
148.91167	1018832		739138
148.91458	812528		674775
148.91537	810320		873183
148.92055	832017		944002
148.92174	858769		945145
148.94896	800341		931792
148.96216	795030		1038750
148.96312	849622		1012737
148.96845	831943		559734
148.97048	975511		677090
149.02291	900127		843570
149.03927	800737		836248
149.04351	795473		498971
149.13275	829101		841281
149.16256	799953		654017
149.18715	804533		663227
149.19987	835383		723730
149.20171	884407		778830
149.22024	801721		864334
149.2486	836221		856336
149.27652	896577		768262
149.31652	801926		774238
149.31946	1052743		818365
149.33456	877545		576805
149.3354	789769		808221
149.36876	1141646		883381
149.37623	783951		713811
149.38096	882927		705042
149.39231	785633		580292
149.40804	893843		795773
149.43878	838743		781724
149.44576	821720		957346
149.45331	792345		800117
149.47117	890588		885886
149.48859	856990		1027787
149.49197	837215		808091
149.49272	838431		797377
149.51418	791650		983197
149.55256	870247		778012
149.56347	784105		947852
149.58533	810284		1077280
149.61121	895343		1002088
149.61767	804720		828757
149.62048	792240		746924
149.62367	798849		589925
149.62669	785585		831806
149.64352	915956		888968
149.64952	781492		912362
149.65674	1056405		575114
149.67578	936248		707781
149.67662	849464		697364
149.6783	782712		521876
149.67932	1094521		748789
149.68019	1010617		783051
149.68137	1132153		740877
149.68476	794745		1039117
149.68569	870809		536273
149.69093	957498		722756
149.70027	802428		851677
149.70268	1231804		848355
149.7127	907645		678622
149.71646	919230		975919
149.71978	883422		667558
149.74457	839362		735898
149.76124	964068		651766
149.78546	879687		542215
149.8257	816525		736018
149.85837	805330		907579
149.86002	819154		602420
149.88086	810709		867171
149.89684	784983		803693
149.90211	789144		951653
149.90839	905209		557152
149.9453	942718		648746
149.95522	912735		709870
149.95905	840800		939456
149.98222	875491		739494
150.00638	894182		917705
150.01123	817831		972322
150.04732	841676		557271
150.06501	1001327		824070
150.07794	850289		635529
150.1231	895991		814520
150.13159	946168		756093
150.14705	808314		553444
150.17114	793342		731475
150.1819	982015		776652
150.2716	887308		898732
150.33431	852629		767789
150.34182	819798		874574
150.34494	856663		757305
150.37032	820058		758370
150.38304	864604		963080
150.42267	834498		498257
150.48505	843435		826547
150.53258	858258		603885
150.56821	838327		938528
150.57226	804471		933371
150.59327	794554		900687
150.59569	823227		1037112
150.74139	998480		750388
150.77293	789141		815857
150.78561	853078		815475
150.80886	848410		964425
150.853	885664		791398
150.88519	781893		752264
150.89542	795175		391711
150.90656	788456		990655
150.92528	781035		926816
150.93163	850412		590450
150.9953	824693		682143
151.02911	857018		878827
151.0684	810176		789092
151.2216	814743		927059
151.23126	847064		797525
151.27445	804863		693743
151.28198	781856		905811
151.31444	795237		857240
151.36254	850540		792295
151.38061	794030		863424
151.42368	807477		990982
151.4484	802585		621342
151.4627	794363		862655
151.49349	911999		761893
151.51395	819810		523302
151.53788	792710		827352
151.64862	783319		862881
151.65565	811160		997171
151.67092	812122		573408
151.68913	893661		1014636
151.72778	884419		650503
151.73886	783364		616541
151.76032	809256		722405
151.76352	787304		1000848
151.76922	782121		1057146
151.78443	840555		906539
151.88814	801083		941041
151.89763	805885		859145
151.90252	1120445		663595
151.92962	827202		556286
151.99269	871659		524298
152.01743	825103		752136
152.0332	853201		844946
152.04498	790035		835733
152.09306	1117851		784653
152.12581	848096		781952
152.12628	981984		802737
152.15007	1045411		860779
152.15737	806213		566835
152.1609	865957		927569
152.20038	852267		796556
152.25899	796340		835381
152.27914	910327		697902
152.30222	836411		667104
152.33647	807488		710513
152.36059	820868		652628
152.37066	786118		937323
152.40489	814539		854336
152.40592	854987		1073175
152.44324	785553		797340
152.44516	829553		637381
152.46446	827476		850420
152.46588	797109		596415
152.48796	850584		867413
152.51413	843868		688008
152.54755	783105		622308
152.57823	806950		901506
152.58126	834023		597945
152.64474	886769		734320
152.65598	804850		826587
152.66132	902547		593360
152.66169	823859		573243
152.70847	845243		887625
152.73551	810559		833533
152.77909	899014		836653
152.90128	837785		370338
152.90917	819770		570236
152.91182	785499		1061259
152.94187	781856		1101885
152.95137	815649		410900
152.95463	840610		715703
152.97053	889380		985265
152.98181	855718		926818
152.99266	869544		978215
153.00002	793561		504005
153.0038	855593		1051511
153.05689	822770		581211
153.0764	862645		637803
153.11183	839547		811285
153.15088	937345		738515
153.1519	938113		820524
153.17422	810757		954802
153.18173	863814		904444
153.18858	784839		906918
153.19724	827208		1147658
153.19784	895560		791019
153.21257	818571		737465
153.23501	890638		850492
153.26157	854035		810845
153.315	796379		903749
153.33879	820991		642507
153.34774	840097		795917
153.39795	791977		827796
153.4149	861931		717725
153.41518	901675		902752
153.48307	802934		786937
153.49694	806393		617422
153.51153	867131		746291
153.53063	809790		882154
153.56003	937411		723381
153.56672	810884		1131843
153.57465	839045		708117
153.64534	818641		869090
153.64676	803857		888795
153.66814	950549		803747
153.67955	896342		766822
153.70717	858139		805507
153.71784	911389		492556
153.71885	787485		1046330
153.72054	809309		629202
153.72497	927198		613697
153.72552	800414		828654
153.72725	975006		760280
153.73493	806368		930050
153.73712	888608		703007
153.73887	831840		617291
153.75951	866724		862523
153.7989	836714		731498
153.82005	786285		742375
153.82308	825518		702063
153.83162	854383		839722
153.85648	888755		619183
153.88587	784888		891373
153.89792	861114		858958
153.93528	889856		716051
153.96663	793030		841375
153.97242	793287		969805
154.00226	892235		667641
154.00525	894156		645280
154.02186	790991		1035486
154.02883	817680		924853
154.03512	863057		554163
154.03967	817746		912245
154.05062	784915		570878
154.08755	825690		741418
154.09076	841690		513742
154.09252	812346		567938
154.10627	871293		604578
154.11673	812990		537197
154.13081	802977		779476
154.14093	876322		768346
154.17458	819048		795296
154.19567	820844		770430
154.19702	789036		864318
154.23052	1065841		687067
154.25156	1002485		776396
154.25918	819574		1033638
154.27685	864185		728630
154.30751	860606		810137
154.31789	820672		780111
154.39391	856781		781592
154.39457	814029		615016
154.44448	798101		645861
154.46298	797272		792102
154.50588	807519		1034299
154.55119	805127		642590
154.59309	830830		800000
154.61818	797618		920757
154.63848	801782		895702
154.64615	784695		937603
154.65515	792537		533181
154.6686	848763		749116
154.71597	786435		568022
154.7461	800712		632134
154.75555	889994		692423
154.80931	790867		863203
154.82091	833237		927679
154.82568	865365		829665
154.8448	799401		613232
154.90634	813027		578216
154.91982	798374		1006778
155.00408	895860		767853
155.02197	817591		640953
155.03208	792441		988276
155.16431	864527		812149
155.16616	876560		789937
155.30581	816040		671748
155.30757	790312		755105
155.32665	853739		814477
155.32706	833131		586315
155.34916	830767		906141
155.35424	934960		710731
155.39778	802936		963086
155.40245	813496		905162
155.42226	892348		941965
155.45665	789826		893286
155.47064	833668		955441
155.47349	986501		679219
155.48171	876742		822840
155.52351	835053		530177
155.58494	806232		977573
155.59025	796633		939157
155.62194	794143		689118
155.64141	818146		727153
155.71108	836078		644071
155.78736	876091		797733
155.83325	809412		864259
155.8568	833224		828675
155.85726	820808		892162
155.85993	816456		711947
155.88502	825613		811370
155.89098	793806		814551
155.90821	834129		817721
155.91415	981714		638312
155.93202	798421		743986
155.9629	882522		747279
155.97773	804637		1116519
155.98698	867039		892208
156.02469	971749		695471
156.03099	945830		885631
156.04466	795113		810147
156.0478	785641		786180
156.05099	813930		949576
156.07199	806318		856102
156.0782	924591		778892
156.0997	798643		722457
156.1216	954166		886247
156.12832	835320		713507
156.13072	803192		740500
156.14964	805947		634914
156.17266	822207		689807
156.17551	892864		1020474
156.206	888389		880687
156.24151	784012		733900
156.25457	872142		777588
156.26574	899504		540555
156.27931	805394		674174
156.288	963028		540432
156.32488	816411		853129
156.32784	861403		992775
156.33758	818077		889167
156.40512	872937		668903
156.41453	806635		981438
156.44229	784048		778865
156.45774	795986		667864
156.46774	881716		722598
156.52835	792383		872591
156.53175	826688		893875
156.56009	936517		803419
156.61119	828750		953446
156.61711	855567		596962
156.65763	904214		676159
156.67613	851290		759810
156.71349	808992		424589
156.7907	799278		727749
156.81249	853106		698921
156.87111	782653		675457
156.90074	871874		930672
157.0183	862999		900695
157.04007	864987		797508
157.05743	812383		901685
157.07231	940705		639757
157.08804	830180		650656
157.10042	872166		831178
157.10744	835816		718100
157.14633	896239		701722
157.25854	802819		735430
157.31641	835470		761195
157.31976	972623		743690
157.37378	855321		707249
157.39996	809565		818183
157.43216	889507		926155
157.44449	879014		862203
157.47004	818730		1024118
157.48222	890157		904819
157.52173	838004		652949
157.61689	792325		486615
157.62072	801222		558282
157.63605	903049		860308
157.66452	846094		775975
157.69019	857299		666492
157.69295	951412		445796
157.72135	890777		704121
157.74992	1024542		806634
157.76909	831714		817281
157.79107	784838		458872
157.8039	912552		825053
157.8385	824623		817910
157.86773	868660		653425
157.93885	841409		654566
157.95568	875141		1018935
157.96079	860869		738160
157.96124	1065990		875917
157.96674	1052807		663746
157.97597	871496		703093
157.98446	911498		854120
157.98506	823946		832324
157.99802	840716		867729
157.99961	794829		837833
158.02385	851537		737655
158.06819	870234		779207
158.0686	874650		706169
158.07009	816730		845050
158.16161	839211		755304
158.1627	795755		808332
158.16844	831116		409663
158.18699	1114672		821447
158.23131	949752		679777
158.28699	816387		837445
158.29805	818309		916413
158.3441	915662		930964
158.353	1051855		639819
158.36362	916369		648840
158.38289	815285		578952
158.39845	872408		692339
158.46531	788133		881193
158.51236	966189		731206
158.52164	802863		852294
158.52593	787248		744436
158.56169	810423		846723
158.57605	854138		951608
158.59576	790973		693182
158.6035	914111		647912
158.61065	859264		745921
158.6212	849250		608995
158.62271	832515		970717
158.63339	845253		780233
158.64422	857735		645020
158.67655	841293		823408
158.68986	817935		755539
158.69997	835665		798386
158.71005	798451		708990
158.71354	800788		636282
158.73324	888824		601254
158.76522	807646		807919
158.80009	900260		911943
158.81682	914472		965386
158.84183	856684		892684
158.8595	812272		839201
158.87636	893555		730678
158.95442	795714		837857
158.98284	926215		566696
158.98413	804136		508593
159.04006	907795		666636
159.04472	862867		685787
159.10604	811999		805747
159.12782	786211		789467
159.17886	865133		914276
159.19042	1172912		632760
159.19073	785136		877119
159.19821	870961		760273
159.22547	814838		1057931
159.23884	952569		518409
159.2417	1040377		776277
159.30373	803782		771809
159.34093	873997		573489
159.39591	843415		956424
159.42555	803741		817136
159.4353	822623		856880
159.47767	953127		592576
159.48664	790313		719331
159.53256	800754		570606
159.557	983607		660691
159.56659	812921		574913
159.56845	948729		741161
159.59813	866687		733232
159.64485	793992		860457
159.64818	812873		807361
159.6993	834099		467122
159.89654	818810		861916
159.93985	787714		759823
159.972	795336		774399
160.03769	827733		908987
160.05446	895129		883217
160.05726	788313		877487
160.07551	833437		710171
160.10611	820515		721283
160.1275	821031		677685
160.15757	874733		800749
160.18518	821299		942635
160.21047	799400		501531
160.22337	868026		814442
160.22648	873275		855653
160.23404	847100		685390
160.25288	816576		719717
160.25432	835008		685659
160.28893	960711		828514
160.38415	867674		877511
160.43322	788900		744545
160.46251	838634		872453
160.46779	787691		1047439
160.4736	909996		778438
160.4801	836845		673066
160.48509	848110		859916
160.49399	951472		655523
160.49905	832369		592761
160.52059	824694		559103
160.52847	1091703		800522
160.56583	813119		698855
160.58853	856963		654123
160.66108	799186		875296
160.7029	939354		800367
160.71916	793629		867413
160.74471	799843		784931
160.75421	816037		648455
160.77143	869160		643568
160.77492	1098665		888851
160.79528	810029		769765
160.83845	962998		882611
160.84849	882232		727739
160.85226	865336		791012
160.85825	811193		891331
160.88401	829439		676884
160.88841	911936		846846
160.92134	812358		776305
160.94888	1023052		877499
160.9933	818453		850926
161.0223	1006171		720016
161.05996	845474		776090
161.08766	787624		687900
161.10464	806571		663189
161.20693	857408		672143
161.27579	819150		750530
161.32929	837017		985814
161.34932	812829		846673
161.35764	921119		674207
161.37889	787811		798203
161.44425	878321		602673
161.45553	845363		967414
161.47579	823735		829598
161.52388	789633		791134
161.52945	859714		605267
161.53233	897347		803427
161.55354	819975		631809
161.56822	826794		592325
161.62679	856342		873706
161.64019	947609		543110
161.64529	807770		963826
161.65295	787484		621594
161.75659	895537		673313
161.76409	807539		736177
161.81616	799357		640853
161.82065	830270		708801
161.85011	806916		648408
161.87507	797097		619187
161.93722	917270		693923
162.00427	787236		890390
162.03154	793642		792454
162.03225	1027114		803392
162.07822	878708		559043
162.26862	804763		894274
162.28645	824287		741406
162.29679	821217		898301
162.30213	869474		811405
162.31824	830950		1004458
162.32159	801894		660855
162.33094	879080		590405
162.35122	805357		723703
162.38334	831731		931679
162.40577	922168		549362
162.41581	794554		612595
162.42033	849531		732366
162.42245	888316		668179
162.45582	804227		688497
162.46708	944133		549934
162.47246	795270		665102
162.47265	819590		615405
162.47803	830279		809921
162.47912	848327		575924
162.49745	819723		698029
162.5002	789004		780891
162.50104	822860		733702
162.50205	870412		630362
162.50241	1404940		680397
162.50316	967660		505052
162.5041	1229965		781118
162.50509	864077		673736
162.50593	1262093		628125
162.50613	992909		718608
162.50763	875277		756345
162.50784	856717		735337
162.50809	837902		1062674
162.50861	859438		453658
162.51248	1113870		839188
162.51337	984335		601372
162.51383	847055		710873
162.5146	1096975		926777
162.51586	822607		720266
162.51632	795151		753726
162.5171	830031		600664
162.51976	847952		642829
162.5275	816338		769964
162.52816	802834		617240
162.54118	1020692		783348
162.54256	818229		559070
162.54543	792181		498908
162.54662	850838		738044
162.54807	890774		747798
162.55009	883670		771552
162.58936	804063		845286
162.61158	831011		945416
162.61436	896164		614512
162.61692	859204		528586
162.76636	880836		626138
162.78593	826440		802974
162.80058	804939		582553
162.82628	926417		648608
162.86901	894426		602942
162.87568	938011		714730
162.87995	844892		940238
162.91253	830947		852290
162.91898	964004		659929
162.94557	842410		735404
162.99474	914932		619050
162.99956	951669		866281
163.00197	1011958		784813
163.03611	832765		717606
163.04209	852670		722187
163.06157	802115		658815
163.06919	897604		608414
163.11484	796686		927542
163.1165	894414		626008
163.12819	853969		618680
163.1536	861206		914536
163.18664	814237		1045120
163.18914	915934		668109
163.21966	797092		888848
163.29331	899316		434441
163.3029	826422		799508
163.332	789116		724141
163.33793	932669		945518
163.36357	833859		784201
163.40447	895948		676996
163.44337	789780		641770
163.44894	929237		822415
163.45435	850006		793703
163.46547	793625		626608
163.49447	949599		830729
163.50372	862753		795298
163.50522	862465		515135
163.51915	915108		542838
163.55645	930604		732236
163.57727	808945		479823
163.58078	864498		893721
163.58876	808307		981683
163.62801	923516		853201
163.65195	868481		1002262
163.68603	817352		683132
163.68894	924617		739597
163.71851	832335		540113
163.7195	874767		886486
163.75492	829783		803399
163.81262	905828		737438
163.86536	802095		939614
163.88169	850163		762422
163.98843	886474		825910
163.99788	916876		638409
164.01165	852047		821152
164.023	810193		916584
164.07546	835421		674085
164.11519	891749		590110
164.12935	832680		677102
164.13563	830506		795130
164.17832	826803		800757
164.18175	822068		743621
164.18268	787316		563894
164.22632	865789		533318
164.24913	844674		828311
164.27077	891399		760565
164.27121	858887		518952
164.30222	788366		860212
164.31396	847121		742272
164.3514	788697		610042
164.3578	787418		723045
164.3962	833827		803338
164.3996	816035		1015689
164.45512	876783		757867
164.46716	993586		773359
164.50896	804155		627762
164.53517	811457		669290
164.54455	854211		785575
164.57865	828107		838669
164.61602	813139		920708
164.68334	791522		789066
164.6946	793188		878494
164.72699	803563		774153
164.78028	872887		623167
164.79592	837498		748348
164.82369	853569		661109
164.82533	926913		645089
164.85417	814599		902426
164.86684	832650		759268
164.931	855704		656602
164.97903	841187		639135
164.98048	879267		886553
165.02807	796590		836439
165.03049	852654		856483
165.12201	834755		880833
165.14274	856263		759822
165.15838	871563		632666
165.17357	806862		806090
165.18252	817680		778817
165.26453	862498		733846
165.29805	876266		791813
165.35941	990072		735652
165.38391	875517		833186
165.38439	818173		707335
165.39189	952831		790989
165.43227	797192		963054
165.44808	863883		881531
165.55497	927011		751151
165.58312	961194		793286
165.58753	923435		634697
165.61814	911793		617342
165.63407	852789		903679
165.71006	862598		596132
165.7669	809491		615248
165.77263	827540		689692
165.78447	855127		596784
165.8635	810345		862659
165.8958	792496		583302
165.9416	798394		733740
166.05211	795283		814069
166.13062	839365		520817
166.15958	818732		749579
166.16688	828973		660084
166.17906	959536		753243
166.21549	860280		733128
166.23885	803134		723756
166.26322	795139		609383
166.31252	808654		726711
166.33783	873492		617390
166.34189	893781		696913
166.34734	799766		769911
166.34872	937239		698038
166.35389	910936		605827
166.38129	1120926		585344
166.42234	803943		896387
166.46827	853874		634260
166.47679	1020660		730013
166.50762	823547		730104
166.60747	806162		815414
166.62214	823317		722242
166.69811	845702		490866
166.7368	789935		859430
166.78113	875961		457489
166.78181	867642		898070
166.78884	820219		626792
166.79841	837949		896442
166.81879	918082		785368
166.83972	909959		546871
166.8718	817102		872659
166.87828	844752		945619
166.88481	856785		718071
166.88594	791762		662842
166.88711	1050706		694876
166.89757	1162836		732888
166.91523	798360		502401
166.95511	792609		697554
166.96634	834340		440544
166.97188	832037		659313
166.97259	834597		547224
167.00968	821870		563792
167.03275	822771		735665
167.08146	805439		672741
167.11601	1011975		531120
167.11862	856071		723741
167.23694	1000099		753881
167.24528	947364		591844
167.24602	816485		631925
167.24628	967717		835118
167.24956	944165		440340
167.2508	948006		709565
167.25533	907047		866742
167.25596	831143		1036955
167.2578	1283879		722350
167.27658	792300		728440
167.2788	1307692		699358
167.27981	1018540		844049
167.28154	1172397		768935
167.28191	1185709		718720
167.28221	946733		789843
167.28239	1015085		673148
167.28275	1302893		565794
167.28357	1146797		498752
167.28386	1093549		541806
167.28441	1199790		622600
167.28516	1317358		569699
167.28562	1307438		639435
167.28676	921134		600807
167.28711	1270958		714683
167.28771	925614		883223
167.28828	1397166		683639
167.28971	845487		781773
167.28995	980399		575567
167.2902	1109807		627453
167.29135	1704239		790505
167.29304	1397680		632965
167.29501	1031408		509314
167.29571	869936		1351912
167.29593	790064		1455037
167.29618	983728		906231
167.29829	793777		888897
167.30247	878706		716265
167.31088	854324		780777
167.31777	838069		812628
167.31961	857270		876406
167.3218	825910		864712
167.34032	1049786		511980
167.44031	868818		813658
167.47498	1024986		541923
167.48685	1010524		744474
167.54044	823145		758671
167.60262	871415		722447
167.60679	889272		770556
167.6523	856067		905987
167.7565	799387		556344
167.76114	815004		749996
167.76884	795038		653946
167.77776	957088		592732
167.79655	790757		607309
167.80893	804264		856619
167.81078	812840		830768
167.82319	891819		745620
167.84896	811697		840753
167.87741	802936		685780
167.88958	899258		998158
167.90811	977119		507898
167.92255	830530		841671
168.05313	853729		588459
168.10056	825388		702498
168.10246	866412		849363
168.1271	936818		743702
168.13903	807733		726031
168.14152	988534		713433
168.16345	866555		701044
168.17003	796284		807381
168.17843	794686		808566
168.20303	850564		650212
168.21997	801160		794634
168.24483	887566		559326
168.24996	879823		752541
168.26709	848147		620324
168.27722	873558		593966
168.29615	874394		863009
168.30944	881437		803533
168.39335	906801		817871
168.40126	839347		577168
168.40823	795956		570147
168.42117	824632		669456
168.44006	813308		533300
168.51656	814542		605141
168.53824	791123		516443
168.58417	815102		425785
168.6219	848391		511632
168.62417	846888		479489
168.6444	920556		792829
168.66813	805746		1023901
168.68081	816885		663696
168.72138	829567		641543
168.7286	799168		649202
168.73564	815234		894206
168.73869	859139		781980
168.75685	992135		673316
168.78552	806734		784326
168.86318	859744		460838
168.86775	835362		646054
168.88529	798758		646212
168.90027	863209		569835
168.95294	827830		835776
168.99668	825536		842509
169.0123	1140292		674030
169.04465	848396		529972
169.16932	1089386		583330
169.19675	815344		418156
169.34503	807828		708992
169.38034	870556		747185
169.3865	867870		458610
169.41976	848422		534088
169.48146	841269		813546
169.48917	832950		831953
169.56978	916682		781233
169.58248	881933		691165
169.63358	916889		682336
169.66634	845793		849923
169.6742	885475		826959
169.70424	820010		575212
169.75826	966455		632487
169.83112	904969		684280
169.84298	801804		891644
169.89043	809943		646432
169.92297	957343		796222
169.96421	844201		686137
169.98101	867181		402158
170.00339	894707		679474
170.07112	846275		914012
170.19001	811488		840119
170.1943	877089		736203
170.19533	822689		453583
170.20295	794339		930470
170.22285	863528		695965
170.24197	827629		853045
170.24994	797935		973005
170.25682	808944		724891
170.2756	872373		640230
170.28831	808888		697144
170.28869	902776		670733
170.32715	874241		783205
170.3359	809220		718849
170.37679	869262		515826
170.3999	1010707		848861
170.41431	893143		579931
170.58076	817151		764091
170.59456	944451		696085
170.59575	954435		731315
170.62173	869914		386589
170.64945	827216		687033
170.68592	797849		591116
170.70363	815134		752282
170.76211	799724		1113033
170.78769	812402		806470
170.78961	1142131		776787
170.82274	802299		769569
170.85027	888962		714304
170.8665	806534		533392
170.86706	797766		698035
170.96782	833247		674845
171.16062	838286		780660
171.17586	835666		563832
171.21753	812188		589314
171.22192	833885		780263
171.3308	912504		542995
171.39098	846279		680148
171.40578	802571		764766
171.41348	838157		824458
171.41468	884301		514545
171.42503	1110672		620207
171.48028	805021		506744
171.48103	988830		622985
171.63071	817347		661286
171.63582	823748		656057
171.6396	810085		479033
171.64508	851142		788817
171.66536	800076		832721
171.70421	808917		672664
171.72305	805210		823368
171.76652	859557		713864
171.79614	843052		625639
171.83558	802678		426925
171.91994	832523		707040
171.93485	823567		672974
171.93832	825104		813532
171.9403	844688		811648
171.97142	1002520		696118
171.99016	934813		575878
172.16705	870473		667815
172.2295	799129		501533
172.2358	919130		644877
172.24423	929244		602590
172.26666	838818		523784
172.28061	812069		607517
172.29239	809064		796468
172.29564	936617		439107
172.3043	877803		842117
172.31129	816509		619558
172.31148	856397		582734
172.31197	1021293		675123
172.31534	915438		553992
172.31561	843502		619466
172.31608	922350		899846
172.31975	921327		797494
172.32041	836208		910856
172.32182	981104		712542
172.33692	853076		484068
172.34051	795253		532682
172.34863	822135		643774
172.34976	871031		896877
172.35058	1047159		827430
172.35379	818488		588661
172.3555	1139320		466864
172.35801	1031417		701221
172.35926	813433		993602
172.35971	840825		1012378
172.36032	1019258		744961
172.36109	846074		925085
172.36219	850554		655983
172.36258	1031290		407476
172.36398	1062907		811366
172.36454	946299		602527
172.366	865723		578122
172.3668	1050811		609575
172.37309	826365		709595
172.38668	899456		826219
172.38875	873345		814317
172.39069	946433		943126
172.40359	798468		979779
172.40498	891013		748435
172.46649	865172		820766
172.51888	878882		739983
172.52494	839779		601273
172.54805	832041		706232
172.55454	802731		905150
172.56786	809198		634094
172.58172	852273		767456
172.58928	863347		561675
172.65804	821317		890582
172.69299	934094		710525
172.70366	814544		693470
172.84815	868149		711372
172.89599	868225		720657
172.90537	834051		739507
172.90603	827139		766695
172.92755	844041		890113
172.92795	868809		732811
172.93485	853835		648502
172.94728	884110		597001
172.95765	887697		662731
172.9623	803794		509911
172.96682	828819		768333
173.00928	799518		839238
173.06772	797741		669994
173.11948	867002		542882
173.15169	897474		609043
173.18246	848074		712918
173.1871	801515		504257
173.1875	855307		414089
173.21622	857106		498530
173.32734	794799		593469
173.36909	1015929		674873
173.48404	973079		639170
173.48638	810391		725465
173.52992	848034		858590
173.53036	807171		531522
173.55486	908073		840514
173.57074	870317		415076
173.5782	838063		775374
173.59582	824115		748779
173.62418	907707		728835
173.64134	861375		724428
173.64363	842816		694293
173.68979	803531		793476
173.81799	816364		666257
173.83789	798961		742791
173.89706	920385		511122
173.90246	829954		832308
173.93024	803657		709947
173.94674	806029		617574
173.94894	853582		660796
173.95733	1032208		729584
174.02742	798882		676495
174.10966	1227191		574981
174.12975	828861		668985
174.23614	804184		759054
174.23819	815449		839823
174.34745	900853		754431
174.37099	1017339		649938
174.40054	919171		785401
174.45442	817105		508439
174.48771	807193		747431
174.49046	855962		690728
174.49834	861404		468160
174.49909	868316		611797
174.56363	869997		510044
174.60528	880952		672181
174.63392	959295		511097
174.75642	834015		530740
174.77629	963172		668497
174.79678	953449		822359
174.80552	820332		445816
174.81861	831343		810818
174.92173	913610		614506
174.93577	934798		827686
174.94898	904081		773106
174.95409	851026		629062
174.99546	895325		658804
174.99783	832734		666317
175.00222	802399		618092
175.027	843942		535580
175.03896	842281		436744
175.05274	812844		732122
175.06394	805231		688904
175.09094	909238		743564
175.09135	803574		764521
175.10128	800697		818727
175.12765	800768		737726
175.16949	821899		659810
175.20947	830421		751116
175.30115	866029		833514
175.34475	801977		655033
175.37823	846593		923016
175.40396	1098248		630453
175.40661	836745		602542
175.47225	843674		439705
175.58601	827192		740900
175.61997	832129		689031
175.64473	839367		834884
175.64792	913928		670278
175.64834	835080		620645
175.6592	842443		975536
175.71526	823002		523540
175.72184	878364		468776
175.79092	884974		611345
175.79317	818159		723848
175.80575	970354		597206
175.81997	909302		675311
175.92331	995089		765123
175.97009	846557		503560
175.98832	875810		563001
176.00491	940134		595017
176.05369	815731		408943
176.08044	855738		614767
176.10538	977473		768102
176.12519	796358		767249
176.22696	807265		541413
176.26136	934314		466808
176.32452	905467		706383
176.47134	908578		773083
176.52103	841391		838800
176.54365	809717		710085
176.60827	825926		954201
176.69557	811870		748766
176.7052	942688		458290
176.74019	882538		703027
176.76208	812911		800736
176.76266	962928		590770
176.78133	875445		539215
176.80468	806011		782915
176.84284	800133		703209
176.91246	800920		748490
176.92482	909211		622360
176.92986	864028		850489
176.97255	880616		639082
176.98914	846188		601654
177.04334	830011		647132
177.07307	846403		814981
177.07938	859844		722998
177.08366	904133		819050
177.09552	824009		510016
177.107	808908		754254
177.11545	817486		974277
177.13494	808467		713814
177.1642	828507		554306
177.17391	966110		622143
177.19324	812899		785645
177.28091	997242		870920
177.29069	801149		796937
177.30192	866048		752638
177.30987	975490		692796
177.39381	802329		916276
177.41657	996383		828578
177.45191	819624		867659
177.48197	807024		509183
177.48849	920754		594396
177.54361	926913		557659
177.69259	824937		790202
177.69772	806122		782679
177.70344	964204		694751
177.70747	797421		841169
177.71637	799951		517097
177.72455	804722		853114
177.733	968692		733097
177.73396	1119220		701645
177.7356	840821		705221
177.737	1035509		817923
177.73763	908853		612852
177.74016	868982		553985
177.74343	878839		735485
177.74468	798711		602165
177.74746	834296		830910
177.75291	803321		716581
177.83507	819216		628323
177.85332	842196		670246
177.86608	834456		577379
177.89446	853536		636769
177.9179	816550		663071
177.96194	859570		911439
178.0039	828605		775837
178.01199	824447		459747
178.14632	887268		599517
178.16433	837481		576524
178.218	806391		966322
178.28295	882569		734997
178.34568	853018		577610
178.37475	807586		788730
178.39369	817191		815981
178.41009	798507		788151
178.46515	961850		738245
178.50924	933638		533161
178.51194	800071		743442
178.51227	818119		1000995
178.56268	827989		595269
178.5648	864725		733880
178.5905	907996		677249
178.65901	819439		786545
178.7042	813755		521984
178.70789	956284		674422
178.71148	797821		371026
178.79639	822165		946754
178.80992	836952		553843
178.81444	825337		397292
178.8479	853411		689374
178.88058	816940		756498
178.95061	800703		902555
178.97137	893380		731198
178.99073	862538		462056
178.99143	1141194		696608
179.02938	800212		783684
179.06618	847326		709891
179.08617	841700		628117
179.13497	999281		787958
179.22098	899657		469746
179.22944	849675		572945
179.26976	827030		808675
179.28263	908954		631731
179.32295	816101		454991
179.3244	925349		668110
179.3551	921133		673090
179.36648	818033		586989
179.37822	888372		915603
179.43214	820419		781572
179.53105	874078		714302
179.58739	901421		568937
179.64178	872572		887752
179.64925	928638		570841
179.65624	811264		744770
179.68027	956295		654258
179.71481	831120		729587
179.71892	892242		602358
179.76244	825950		495413
179.79588	953255		679062
179.85474	1010359		714897
179.87765	827837		490508
179.88091	931774		646074
179.91074	842310		699260
179.97781	870745		681982
180.0392	815402		646478
180.05557	851311		677432
180.09913	829691		794343
180.23312	920736		867541
180.26932	885706		503927
180.36337	799876		725408
180.37635	836295		750460
180.41725	861267		678020
180.41892	821459		717887
180.41926	905555		974560
180.42917	828886		740955
180.43426	860887		837525
180.47845	1027300		751461
180.53846	864884		670556
180.55874	855674		848027
180.60317	833670		874961
180.60996	928008		655411
180.62306	869260		716946
180.63424	899855		463713
180.6483	847763		807883
180.65591	847701		567404
180.66394	885783		727153
180.67506	803098		713005
180.78374	846393		723656
180.79154	853563		594481
180.83647	910279		859742
180.91591	818141		859216
180.93207	819362		474349
180.94741	828326		667441
180.96063	824810		680896
180.96249	820458		769210
180.99989	823925		540149
181.01838	856442		742597
181.09159	885262		726031
181.09794	808592		808761
181.10848	848275		678574
181.14488	847709		409587
181.14638	804126		826447
181.16468	960035		642114
181.19169	818730		741834
181.20934	886447		640680
181.22484	805812		922363
181.25305	865212		755264
181.25805	819645		597769
181.39261	889699		615871
181.41147	801320		560715
181.44636	931954		576710
181.58359	816664		783041
181.59241	804059		654088
181.66928	933680		852798
181.69661	876440		363406
181.71237	817596		819008
181.74599	888646		860543
181.78434	863569		701726
181.79501	834004		741193
181.89447	960048		524278
181.90623	968819		554961
181.99156	841803		647547
182.01151	805521		733359
182.01819	817938		739165
182.11016	827372		641358
182.11426	893998		668543
182.16027	861499		755968
182.19443	916164		490423
182.21621	812874		794116
182.22058	853708		634217
182.2395	802641		566126
182.27012	814426		757572
182.27755	800860		703163
182.2912	820192		882400
182.30183	931427		529092
182.36502	863668		607916
182.40421	992383		586712
182.41751	896643		624553
182.419	909316		690721
182.42668	846214		713989
182.42738	857862		715205
182.54481	809895		559165
182.55864	1076715		565779
182.61914	822332		517468
182.66709	859466		454859
182.68524	1013583		639214
182.71662	984280		678711
182.76175	931429		618283
182.78525	1029355		839162
182.79187	1121517		655157
182.79514	846894		636829
182.82979	1022072		451268
182.85324	894239		456672
182.86526	829442		435580
182.90788	854286		523012
182.96384	820574		591636
182.96806	1004831		696213
182.99823	899624		688471
183.17408	972442		438638
183.23646	892140		553268
183.2476	866607		550831
183.33975	866697		648731
183.35981	855311		479009
183.36689	829585		821670
183.37845	877204		763542
183.43993	830118		601759
183.70302	840497		414205
183.74355	806908		505833
183.74663	872829		650609
183.77949	990599		564640
183.78326	813704		587046
183.80088	850957		695725
183.83147	837270		646682
183.83472	818966		740524
183.88758	944934		679754
183.93391	848947		675678
183.95992	804378		410686
183.96771	804157		818898
183.97101	1034174		728051
183.97352	830782		692579
184.01766	953483		560807
184.036	923728		591529
184.03814	847441		579332
184.04305	956178		517440
184.06178	849624		760249
184.45623	807177		467000
184.47358	836942		960908
184.48557	992337		573123
184.638	855357		556764
184.64183	824574		639539
184.64744	883200		635741
184.66504	844933		763557
184.66613	901573		481251
184.69547	815374		824341
184.71054	802706		776457
184.73006	811096		545203
184.73241	854808		668277
184.73636	902938		637445
184.77398	882724		644731
184.85037	913466		655016
184.89008	831686		712476
184.92757	830993		577833
184.96485	887067		554020
185.00582	812135		684003
185.03296	854895		612688
185.08705	887935		712640
185.17215	836631		793656
185.43626	920036		675099
185.45674	1037930		601554
185.46859	864493		481501
185.50023	827510		659682
185.53764	936577		526467
185.56348	959625		752910
185.65748	834468		777104
185.69596	924207		643445
185.73453	843706		548518
185.82076	935380		822864
185.84158	838234		631536
185.85112	866012		664833
185.93376	841076		652176
185.98663	804100		724823
186.06739	902939		723164
186.08318	842272		542485
186.09319	965411		699798
186.15571	827189		487384
186.29603	865886		743045
186.40224	848381		813912
186.43924	875784		828841
186.47689	997907		846666
186.55809	863722		581994
186.68987	858449		635907
186.69097	889937		706458
186.77114	887785		591138
186.8068	863987		545378
186.82227	809720		531094
186.82383	816568		519283
186.84725	829951		538231
186.84969	913920		693770
186.85059	827264		691571
186.88828	920971		644846
186.8997	3300239		683995
186.91738	815892		687143
186.94966	846109		593672
186.96505	852770		714030
186.99286	992298		694661
187.02672	838836		492357
187.03909	809975		658525
187.06781	830016		685057
187.07754	807555		592412
187.10452	833098		865286
187.14974	812504		733910
187.19632	847845		643066
187.24256	858227		754204
187.25501	830071		669306
187.26464	990457		641264
187.41013	960676		434034
187.44387	819502		734621
187.52513	830406		689623
187.54352	824267		701908
187.5499	1069389		701231
187.60472	832605		795419
187.61807	817889		757061
187.64648	815082		786065
187.68623	822005		748208
187.70567	816059		614356
187.77299	823759		532893
187.79834	881686		786409
187.81302	932379		781544
187.8305	954144		664875
188.07757	893801		707307
188.14153	869436		562163
188.16654	972035		616567
188.17043	816132		718513
188.23934	931353		559306
188.35474	817083		664188
188.38726	809028		615936
188.45109	934743		730919
188.4949	837156		612393
188.51086	839017		738373
188.52884	1087598		780581
188.55894	861047		835228
188.57707	878717		593451
188.61329	826503		717836
188.63394	956301		792560
188.6347	902318		354504
188.65167	824339		833768
188.67687	840090		570079
188.67752	868634		628879
188.69208	822047		799487
188.77939	806456		849058
188.85334	822862		662037
188.9001	3399644		645745
188.91866	855906		844093
188.93982	861416		434914
188.94623	854634		758833
189.00524	829052		602927
189.08263	824594		617037
189.13489	866722		573504
189.15076	864295		704501
189.17597	907822		672045
189.18042	830896		757412
189.1988	883845		324517
189.24089	902338		595986
189.32668	835803		640039
189.37388	835561		757861
189.43932	810749		648168
189.48008	912201		507188
189.54873	1073181		479885
189.5505	1030174		674830
189.59502	821035		608993
189.63552	829239		623486
189.64976	876347		667515
189.7368	823253		732946
189.82022	841710		666639
189.83559	883059		668688
189.84015	821300		493427
189.86068	935674		789600
189.96727	851738		697553
190.02361	890411		776577
190.09077	854335		666110
190.13307	818635		616276
190.13356	935116		638741
190.18129	822042		429691
190.21347	912355		781902
190.23384	852330		533598
190.23722	812139		511731
190.27163	804853		640230
190.27279	841013		600644
190.29843	927741		613116
190.30874	832512		544281
190.39997	934043		823912
190.44448	831145		694702
190.47201	860081		992466
190.47233	834225		1009964
190.5105	892348		742434
190.52985	831234		459738
190.57308	953295		679662
190.57588	1034192		623528
190.64166	807396		731888
190.64444	856164		685688
190.68602	900529		525472
190.73218	941567		594066
190.74219	881922		808064
190.75113	836612		545186
190.84356	861856		626346
190.8978	840944		424303
190.967	817029		612690
190.9755	1000520		608884
190.9857	900555		581138
190.99801	840527		661369
191.00269	840784		734995
191.04149	863196		651195
191.04235	881116		713933
191.15982	832575		590644
191.16315	846080		515360
191.21198	815887		734579
191.23033	849492		444457
191.34008	925109		620184
191.34177	942774		614384
191.35108	961337		743435
191.38587	815299		554927
191.40327	811144		581062
191.43102	924177		532198
191.5391	904049		688216
191.71861	871207		509733
191.74734	956464		613020
191.77594	947129		587000
191.89524	882524		655181
191.91188	863778		462014
192.04019	999752		435920
192.09805	897434		587123
192.1208	980257		617220
192.12264	819105		614144
192.13047	823139		476115
192.2041	975290		532900
192.25863	887498		859609
192.35386	863335		665253
192.40902	809272		575070
192.43657	853824		566999
192.4622	897352		455344
192.51071	822294		823634
192.56621	839847		621592
192.58177	840492		657967
192.61703	867639		552716
192.62778	844474		647685
192.64609	824255		860317
192.67236	824775		657127
192.69075	816333		636620
192.80683	811632		753504
192.84088	875130		727004
192.84766	851836		583103
192.8721	895492		622477
192.95933	1104926		609499
192.96045	910110		580622
193.07282	1007297		795695
193.16123	863195		829960
193.19201	848293		502002
193.21568	876396		637645
193.24275	874740		662425
193.38059	845598		536913
193.38582	844191		787312
193.41027	939687		642496
193.47375	834618		659650
193.58068	831707		530771
193.68662	922747		594936
193.69778	856958		761834
193.7412	880779		784792
193.86627	847025		482357
193.86791	827090		486556
193.87414	1057204		616019
193.87805	812789		601100
193.8808	824374		704790
193.90179	940476		640549
193.92328	850883		791382
193.93403	901318		654901
193.93948	916744		412391
193.94073	809928		686852
193.98092	841300		689037
194.04239	833767		749207
194.07815	953074		667933
194.09205	900598		610986
194.09957	887416		505973
194.20215	848536		657181
194.22818	913568		607439
194.28525	860977		828084
194.30844	845624		711525
194.3183	969403		604947
194.57008	953608		645653
194.59273	846479		640633
194.60521	882771		547892
194.60991	873364		673942
194.63819	860957		677171
194.68963	852908		618315
194.70606	883505		685536
194.75148	815999		461932
194.79335	840588		450267
194.82612	810198		685805
194.89326	840810		627703
194.93756	835320		761910
194.99823	945547		730979
195.0114	874895		520734
195.03026	845076		606739
195.05325	896347		596998
195.06078	813470		589338
195.08896	849702		767892
195.29863	889830		535918
195.33397	1053553		655286
195.35162	830967		789570
195.40008	813701		691380
195.40762	913800		661362
195.43506	836496		667066
195.53662	838799		411028
195.54822	1076275		543224
195.57921	836284		475623
195.74096	895598		621635
195.74808	876656		780620
195.76763	816438		573364
195.81679	886533		546156
195.87156	842774		445868
195.88624	911642		535885
195.92059	856741		705921
195.95072	812078		877704
196.01377	860481		629913
196.06953	862354		474499
196.07159	903315		390872
196.10744	836318		751002
196.13692	883047		558289
196.13919	843688		539629
196.18093	846628		436412
196.18925	1017975		734047
196.20096	927355		663261
196.30797	911803		329386
196.41274	820028		619975
196.51914	864220		513437
196.68748	844048		571418
196.71787	874393		549780
196.73684	965535		499934
196.759	902438		789742
196.78775	874543		629003
196.89764	820816		695746
196.92867	949978		619478
196.93567	826204		547040
196.95731	878947		620523
197.04326	843517		673201
197.05098	825472		630929
197.0883	813835		676370
197.13399	854425		690298
197.23459	831160		585732
197.39372	888041		803828
197.39934	851051		606976
197.43256	922869		663434
197.4442	901497		551846
197.45867	886205		487257
197.51424	881422		608515
197.55831	924060		492881
197.5748	976289		659048
197.59074	830758		616133
197.83609	821041		556144
197.92607	868877		812908
197.97584	834332		585833
197.9822	1069342		663960
198.07154	928762		381069
198.32224	1038215		523881
198.3456	850702		642166
198.37563	810648		691715
198.38144	967961		593449
198.46061	914738		660948
198.50079	906814		640676
198.54645	854796		502176
198.56098	836689		548725
198.63191	833639		682931
198.63934	900457		705313
198.87727	865842		619294
198.93556	816836		832122
198.94694	855240		724561
198.95792	871627		524631
199.05513	844009		724477
199.06552	845293		676069
199.07524	889328		522433
199.10802	1087226		655802
199.13299	870273		427211
199.14917	866566		634147
199.18168	970512		687088
199.24192	826403		689420
199.28585	845745		627151
199.28986	999218		610375
199.30013	892373		419326
199.33438	930624		614713
199.35142	937029		756470
199.38117	842062		656158
199.3979	864211		597050
199.4876	1069935		542700
199.52878	881148		518321
199.53813	827263		654949
199.72775	833721		830551
199.72832	856377		660776
199.77172	838279		459526
199.82497	848855		481462
199.89694	869614		530228
200.02945	814231		471191
200.07811	868134		657638
200.08467	817896		544275
200.08862	834217		654596
200.13306	888247		414660
200.14192	888249		499249
200.14461	828986		653222
200.14555	846458		558549
200.1621	867392		595812
200.19887	1022731		414185
200.20498	816589		697303
200.29326	825704		776567
200.36187	853117		649946
200.37482	820353		629749
200.39421	1033095		572837
200.50629	925994		529086
200.5073	1139626		566834
200.51468	846253		649823
200.53142	887602		644050
200.58894	833092		616100
200.60851	825546		492653
200.66731	842844		699651
200.6982	813350		482022
200.78909	947586		564321
200.82128	814860		630891
200.91619	823913		599426
200.92715	832429		508423
200.96737	814265		753495
200.97868	840380		648587
201.00137	834499		580860
201.01584	1001928		662398
201.02012	819433		350611
201.04094	835408		501311
201.09949	841954		533451
201.1	943970		630960
201.10196	875747		733464
201.11568	882791		610112
201.16691	826039		518337
201.18805	872829		601126
201.21917	838791		627747
201.22627	822665		878728
201.27472	945304		529110
201.34124	830253		695898
201.37874	958264		616895
201.52454	891238		601679
201.53561	826729		633616
201.54042	838251		581798
201.56223	827601		249709
201.73856	891432		728500
201.81111	840255		512483
201.88478	886997		505497
201.88717	987990		500521
202.01916	838271		440806
202.02463	824833		697478
202.07186	1019791		434855
202.0954	849111		463644
202.12385	882976		537634
202.15142	846504		871161
202.17473	934191		626625
202.17798	862640		765867
202.19971	1079095		600852
202.25771	878793		650875
202.28241	936145		565248
202.30793	879769		413977
202.45625	880775		596225
202.47509	1015181		412524
202.53241	837150		710455
202.62455	824123		638693
202.66819	827208		632249
202.74244	827232		735441
202.79387	886127		805696
202.80157	828402		725633
202.81242	926709		637390
202.88812	876941		614431
202.96889	820134		618721
203.00838	907186		756243
203.05715	856385		649089
203.0724	824774		772279
203.07306	1002694		488274
203.11313	829779		770149
203.12956	960728		634390
203.14067	851419		497429
203.18488	854249		636351
203.18964	822570		383844
203.19608	834540		515414
203.23502	900728		532373
203.35167	863517		604667
203.55512	938716		640409
203.64948	816505		601585
203.76481	823709		702531
203.90926	846538		609166
203.92513	1015119		564889
203.93016	882768		599001
203.96085	818010		651757
203.98408	884065		696489
203.98746	836706		721855
204.00828	851433		514435
204.04623	916596		637849
204.06366	1150714		604587
204.07234	846972		560228
204.0818	977791		684846
204.28011	819069		518270
204.35963	892758		622922
204.5076	819268		404896
204.5962	860447		458826
204.60001	888864		611165
204.65389	843313		742043
204.68103	832313		685796
204.68963	943804		594080
204.73084	840777		416482
204.91028	2055937		600403
204.92116	822788		758094
204.98052	820758		548266
205.06952	992818		612967
205.38486	888212		661276
205.39091	874134		620712
205.47169	995311		447001
205.56408	851660		718405
205.61082	845274		744768
205.6305	887520		397713
205.68222	870384		366823
205.68855	849650		676254
205.69684	906101		557923
205.72259	934269		462724
205.85032	834853		800811
205.90865	937527		717564
205.93374	838206		663112
206.02973	849500		618311
206.06181	868070		533325
206.07179	841481		345239
206.23584	911132		669194
206.32799	902457		580560
206.34952	876736		634916
206.35464	898625		572667
206.35577	918849		580893
206.38737	996299		478330
206.42945	879704		533668
206.47213	976806		361650
206.6404	855322		551920
206.68293	888231		702909
206.68453	816679		635904
206.71799	820402		666448
206.8532	951772		538075
206.85383	835292		591238
206.91065	3609454		572113
206.93121	962676		697444
206.95718	822908		540331
206.99553	835848		664600
207.11071	857516		506640
207.11933	856750		697914
207.32825	907759		739494
207.59272	903105		394725
207.72026	835945		575317
207.75479	1128179		533128
207.79027	916990		627021
207.82893	826250		724491
207.89853	846944		477599
207.94753	895151		672596
207.97023	832694		620997
207.98558	828347		618356
208.0348	923338		440263
208.03791	819275		615916
208.09674	839901		736477
208.09844	941790		505422
208.18271	944248		374938
208.25203	896845		438350
208.35638	857134		680133
208.3674	841265		645221
208.46857	824337		320139
208.47087	846673		344517
208.49176	820248		419127
208.49277	871000		587485
208.49755	843098		677539
208.55525	861291		374139
208.56014	867565		515764
208.70171	860825		686074
208.71367	909980		539263
208.75772	837930		669843
208.77578	848816		605099
208.8225	958014		596659
208.88258	823121		632509
208.9178	920924		524052
208.94148	850403		471065
208.9607	923497		394867
208.96545	856938		677457
209.02025	836603		490772
209.04444	859011		574225
209.06201	825224		701806
209.07373	861900		436789
209.18251	1288494		585513
209.39605	923248		692709
209.47599	912904		488952
209.49838	891791		566781
209.49919	905487		433951
209.61649	979636		646481
209.63779	831034		669837
209.65231	1043007		633695
209.71484	835026		777953
209.71915	830675		321798
209.74065	839898		676678
209.79758	834988		367391
209.96265	870431		626590
209.99742	869673		660095
210.14959	881752		664666
210.15658	915802		602451
210.44742	1052596		604387
210.4641	843449		780039
210.54685	820179		562362
210.56745	918201		332789
210.59241	822497		686722
210.60086	882916		691425
210.64659	832370		532193
210.64878	904434		699352
210.66697	898040		502529
210.82586	914281		415064
210.97109	937046		664663
211.10902	857472		538335
211.19296	990874		726726
211.22992	838949		539681
211.27511	841139		574783
211.33354	1116869		401410
211.47298	847856		740355
211.48584	820084		631671
211.50334	970106		615601
211.53384	860035		576506
211.68618	826930		837569
211.82018	824795		553898
211.84195	833762		581027
211.84881	904036		463275
211.85009	847716		601786
211.88258	822766		404604
211.91799	858809		373165
212.00367	963603		606716
212.07359	827561		706096
212.14109	965694		539876
212.24699	891742		496963
212.2812	909673		558722
212.33546	896249		752860
212.38124	875655		560105
212.40694	947343		426919
212.50401	919213		548611
212.5453	832826		633422
212.61925	879441		639848
212.85663	883865		583957
213.05281	891221		609039
213.12785	824044		498902
213.14928	966003		509233
213.21109	829574		643209
213.28089	847131		656907
213.33879	858157		784467
213.41875	958917		561541
213.45155	845520		479843
213.49721	865885		575735
213.52963	828263		605652
213.537	964586		333709
213.5387	913386		407912
213.57943	830327		423741
213.62555	894597		744118
213.62605	1008773		658108
213.70731	836766		481909
213.70773	847902		412780
213.92319	899680		570748
213.94487	844390		514864
213.95067	822760		495155
214.05267	939399		400787
214.15027	888229		621791
214.23063	973886		677326
214.25158	896196		342363
214.36213	856934		687302
214.46385	826373		513863
214.48853	822924		639395
214.49836	851471		573494
214.50029	823696		621308
214.71124	872016		564240
214.87597	840578		570174
214.88849	857350		573754
214.9997	870568		690767
215.00248	884713		513473
215.34913	883986		424433
215.66511	878578		746123
215.67147	966772		568867
215.73938	834825		531721
215.84859	847402		548639
215.90292	855098		621770
215.92337	824896		555930
215.93375	851011		758950
215.94493	830023		744859
215.96285	847180		540729
215.98316	873682		493398
216.0124	826331		365181
216.02942	881248		589835
216.04222	839012		586810
216.04443	970981		482671
216.09537	824820		557164
216.10125	964726		516832
216.20351	1015189		410873
216.2084	834199		534301
216.30229	855603		621764
216.35648	938691		512172
216.43251	847834		623915
216.465	859364		581102
216.52835	833015		580597
216.67982	938533		500225
216.6898	1095208		549992
216.8593	865243		642568
216.86119	882844		406926
216.87762	850337		485325
216.98358	891649		558649
217.1172	907433		614013
217.12282	1000363		432173
217.207	900932		539788
217.23111	833356		500950
217.29576	931551		657774
217.33484	832363		660829
217.34928	899823		703356
217.41296	840962		701155
217.45759	840592		650919
217.47215	926740		485290
217.57332	862003		676107
217.69111	848470		759278
217.69804	889176		689429
217.76706	864877		549006
217.77577	849519		761949
217.81623	843388		562974
217.86522	973642		357988
217.89111	887442		525151
217.97822	872620		469210
217.99471	896177		402607
218.06923	907208		641184
218.08768	842701		476287
218.23721	1040634		652248
218.38018	904229		509814
218.38497	882726		534319
218.45881	842428		636344
218.47858	923330		540982
218.48372	828356		469363
218.51194	946252		649440
218.5313	944594		542440
218.61012	935402		366735
218.66529	903162		516330
218.69123	983426		683141
218.70508	827014		647311
218.7812	918941		523930
218.97643	870743		430673
219.05103	909677		457271
219.10974	875135		545753
219.3418	882884		400088
219.54681	857857		591680
219.55088	868482		623022
219.61785	857430		449043
219.64546	1078302		333107
219.74387	858300		680331
219.82154	902995		434713
219.957	830203		585198
219.98386	843907		645276
220.08351	854945		654712
220.08985	853794		403255
220.12202	885036		495567
220.14746	839603		410935
220.20574	866245		628854
220.32473	911720		447510
220.35787	844402		517413
220.38501	833658		531918
220.44642	835468		347309
220.58674	828342		533746
220.78108	930159		541402
220.82879	827389		605708
220.92089	880152		590099
221.06451	826819		599563
221.15902	859359		419060
221.19788	889706		642812
221.23788	918070		392786
221.36883	838300		683308
221.45646	902710		368997
221.64021	985068		631443
221.68699	872186		535663
221.79565	866266		390356
221.79986	919131		339194
221.8213	830753		717910
221.85075	956970		549676
221.86563	850222		470991
221.86933	901423		614904
221.93587	960323		486965
221.985	907089		516242
222.10538	883125		385878
222.12696	886651		550504
222.14188	836351		621984
222.21507	877333		599974
222.25309	916256		560306
222.29595	925356		550854
222.36291	871968		309120
222.38758	853703		523483
222.45014	851801		616719
222.46019	831452		735978
222.48863	863333		405208
222.51629	952173		411164
222.5451	860405		631333
222.58655	853121		578096
222.7439	861999		521348
222.92083	5253219		548650
222.95383	866796		552784
223.03208	1001859		623995
223.11372	840603		734321
223.25886	830021		596436
223.27967	853323		521635
223.35285	887648		547086
223.45755	929279		552947
223.54025	989719		612427
223.56629	1005470		409540
223.5726	2431776		531103
223.57676	934177		496733
223.58075	989346		479812
223.58199	858659		495233
223.59277	903462		486684
223.60528	881833		579434
223.70314	837574		589946
223.85439	925425		427504
223.96173	898960		582029
224.12275	927551		557397
224.17487	849806		353770
224.55456	935867		514313
224.64223	886549		435168
224.72014	909931		371453
224.82569	892681		608245
224.90379	836192		431550
224.92122	3228837		529015
224.99922	888251		472134
225.13872	938339		565092
225.19493	906227		683903
225.41056	879665		528059
225.52645	937682		495215
225.5641	933212		625382
225.68369	882815		687612
225.79057	1029917		540862
225.80628	900769		659809
225.83124	935209		456152
225.8356	950186		654677
225.85333	890031		451891
226.01055	839388		675591
226.07846	844271		539717
226.35532	896061		639158
226.47541	836959		455110
226.60173	842115		496643
226.60291	909699		503617
226.77453	833460		466782
226.84238	915783		529898
226.90485	859353		485420
227.03043	838268		593804
227.31659	854604		350254
227.47878	866810		477103
227.51193	864515		533093
227.72432	835263		399578
227.7567	1006920		467043
227.8872	874604		440404
227.89054	862317		564890
227.93056	859384		727075
227.98377	862215		417067
228.02194	836050		393224
228.10441	873513		467796
228.1295	900528		481827
228.24546	865744		402524
228.47411	906128		607044
228.5003	852119		558846
228.66233	972228		636234
228.86857	960253		553825
228.88655	863234		404848
228.93894	874000		458800
228.94916	936595		514477
229.06962	892341		461797
229.23676	950627		611674
229.39332	863118		720065
229.47898	945573		575504
229.48552	853543		461606
229.51382	852783		374130
229.53286	923572		497027
229.55357	956090		572670
229.63821	900369		350472
229.66664	927705		521951
229.96223	907690		387204
229.98408	1012272		671442
230.49571	887739		526988
230.62208	834398		496889
230.69337	895345		386273
230.80005	925198		600057
230.82617	5796117		555012
230.96605	890939		649288
231.02375	1002570		365154
231.12513	872998		377887
231.26724	862348		687924
231.27745	903823		489944
231.50525	851788		602371
231.66853	844152		420373
231.85064	943017		503509
231.88842	881971		520035
231.90683	902584		594341
231.93225	932927		463863
232.06098	893025		482411
232.09878	850795		516698
232.12226	900466		542436
232.2093	965129		406871
232.22887	898446		450463
232.35438	959919		631777
232.36959	840755		614393
232.44859	947400		622865
232.47719	1006032		587143
232.491	924756		455444
232.55103	863204		623616
232.69541	892810		532758
232.70392	855628		331405
232.75448	885786		601867
232.80406	838951		474539
232.85053	925747		500450
232.90155	1009729		455718
232.93048	897864		677457
232.93929	889035		463257
232.96557	1083858		522502
233.06023	961130		453764
233.06259	1103211		548835
233.17832	903946		519872
233.2009	881808		484986
233.28011	888228		494790
233.33687	1022643		560716
233.66206	859529		562799
233.7741	1016358		519555
233.87016	851519		368315
233.91393	1071179		516344
233.93549	924240		507651
234.00548	1014882		364944
234.05491	869615		580003
234.21484	863513		441865
234.25763	845732		746968
234.29904	899631		512306
234.32868	876983		562341
234.40257	896842		476302
234.41596	860877		532843
234.87194	839363		560875
234.90833	981965		493970
234.97807	859231		407003
234.99439	884067		638490
235.02003	879337		548875
235.02428	845802		489977
235.1108	915713		452383
235.17119	847120		532427
235.19312	852118		588331
235.23831	860193		441091
235.3893	964296		625724
235.47838	973919		400328
235.49565	881635		232430
235.53743	856686		470896
235.75955	845607		719116
235.78016	847404		446937
235.80792	1016499		380942
235.92564	862289		480041
235.95358	935000		473208
236.08635	913146		493019
236.13544	877894		323435
236.40404	891850		583091
236.44698	895189		444802
236.53088	921066		443208
236.72675	878363		583711
236.81351	872241		551642
236.84003	856504		393113
236.93047	847054		514212
237.01251	962403		608608
237.02833	896359		504553
237.07263	897778		545528
237.10415	870778		612754
237.1168	866557		448895
237.19144	860304		618105
237.25391	875807		511828
237.27519	855972		369450
237.39222	864066		505830
237.48638	898009		502513
237.62154	851963		509959
237.64208	929152		482793
237.67006	927879		482835
237.7793	880162		508779
238.0446	903651		454922
238.13805	860026		614701
238.14726	865724		373668
238.4328	956610		410932
238.59369	862954		574242
238.60514	849900		501393
238.68398	860288		461880
238.73607	878348		678509
238.78679	840473		426737
238.92994	852668		341426
239.05434	853594		637374
239.08166	845792		409168
239.12819	847724		651252
239.14161	1032303		592803
239.16913	877942		669882
239.36268	930340		507895
239.36574	872741		413820
239.3721	850599		525312
239.46614	853565		583476
239.53874	844111		550259
239.54296	911824		514297
239.73697	854270		352638
239.78372	947721		590427
239.84258	876824		424075
240.11943	937562		417902
240.2121	906096		428771
240.26131	848123		490385
240.3139	842888		661006
240.35427	1006737		582540
240.43609	854949		597261
240.57267	871877		548634
240.75499	866256		367732
240.76684	872051		332704
240.86863	992779		411179
240.99416	855848		533821
241.0358	864306		620796
241.13708	876106		451142
241.30448	849009		597569
241.43598	971407		407350
241.49345	950429		554485
241.54067	938024		484593
241.55706	879020		490282
241.57358	927919		580401
241.64669	929088		497560
241.66954	850246		478349
241.69659	866252		499644
241.7057	852814		562005
241.79156	846946		602067
242.11121	866347		532691
242.15033	928820		594216
242.30244	883927		537358
242.38361	841002		316449
242.39583	980845		469586
242.4375	877302		424301
242.45197	898425		570738
242.53862	841101		652441
242.58818	981913		472985
242.65333	898983		548037
242.67087	906411		529354
242.68517	966063		571519
242.84454	888915		526904
242.91122	857314		385061
242.97736	884721		708150
243.05618	842499		435519
243.1143	988944		529554
243.18528	865056		585317
243.21634	877863		637728
243.22421	852648		468684
243.43962	952665		572412
243.44125	936281		455031
243.57066	871990		339714
243.62209	894210		476994
243.6664	844939		611431
243.68998	882321		514288
243.85144	941877		526967
243.97408	896464		307123
244.04227	850783		523505
244.04732	846304		543056
244.07151	903141		454864
244.12494	925809		490797
244.16666	900090		556593
244.45219	944185		584777
244.62868	923872		468696
244.75384	993147		545070
244.78437	892034		566041
244.82349	937611		576558
244.871	1061653		447681
244.93363	866339		491181
245.0321	863928		442973
245.26296	877034		569388
245.27713	852461		671806
245.30486	852467		636086
245.46145	943637		560690
245.52582	916003		526770
245.78819	876891		519744
245.81176	876128		627030
245.98666	989445		387030
246.21862	866487		475756
246.26148	870592		493129
246.3686	988758		421573
246.45844	898153		427315
246.54207	939003		530980
246.64154	844432		486207
246.66591	869781		403129
246.74671	846502		479178
246.79839	910129		595753
247.174	870784		594638
247.20621	941446		366818
247.2957	844697		425689
247.36101	922278		480741
247.41275	848817		357673
247.47237	847997		337977
247.4762	958398		509406
247.5245	859080		406453
247.71737	889456		462045
247.75137	862967		488066
247.82714	910727		438914
248.00965	949164		315829
248.06714	846904		688980
248.23404	881818		319809
248.40201	855420		375447
248.52968	920342		459917
248.59783	941732		547915
248.63425	900011		550215
248.64621	945070		659067
248.66572	882610		567075
248.72055	861885		494239
248.80152	996557		562321
248.81381	869455		485571
248.89749	949984		574049
249.11482	876300		383730
249.17072	852247		357998
249.40396	898118		416992
249.55782	988644		462342
249.7573	923276		417657
249.94611	936497		442503
249.96135	929972		511889
250.12248	858452		414600
250.35825	1135746		355430
250.39703	953482		383950
250.51302	1013024		416371
250.84416	905953		381732
250.92922	878449		562782
250.94865	904565		527833
250.9656	942584		458249
251.20506	955046		412403
251.24611	896174		585346
251.27631	863668		564226
251.28546	906934		482314
251.30876	970298		424444
251.459	868183		484842
251.61302	925940		546362
251.74463	895501		448775
251.75666	881168		552796
252.10818	908754		396390
252.16302	853597		577565
252.4172	888333		432982
252.46095	997781		480433
252.9994	860921		523532
253.01431	895356		511521
253.05893	887428		350600
253.24514	895015		585522
253.27947	861869		492504
253.57904	933604		457978
253.61314	1002858		432959
253.6411	874607		383009
253.64474	856304		428651
254.08326	910528		469543
254.20623	871766		440590
254.21653	949464		482374
254.22597	881498		409451
254.23187	876763		598203
254.42631	885502		527501
254.53798	902802		448825
254.55419	967957		445220
254.59125	966940		512653
254.59206	900380		535993
254.80178	859969		435832
254.85014	1004234		438237
254.91619	864470		488804
254.99928	855781		468926
255.04027	1062252		510026
255.11678	1064954		375811
255.13641	856189		569926
255.1815	847493		342081
255.18575	925958		373775
255.19272	866439		520571
255.23291	1140110		509248
255.35454	855588		491144
255.52644	1034818		391826
255.62085	927827		395025
255.74101	869864		364525
255.83698	890873		539469
255.90667	850821		469647
255.92237	861192		411163
256.5891	872699		333950
256.6018	1056766		328090
256.85303	1035177		595190
257.0304	863815		298779
257.26819	863472		619693
257.55793	855329		478290
257.6534	915377		432295
257.67922	954165		506773
257.71397	893627		392413
258.08791	885882		382463
258.17617	904585		424114
258.26927	1006488		381208
258.27868	851866		504038
258.28316	1095835		508107
258.4511	850998		424493
258.54312	1076678		496337
258.54558	1039046		492900
258.65977	975833		407169
259.07449	914973		493544
259.23563	921144		519835
259.27142	941885		402855
259.36708	925133		242771
259.37278	872398		329327
259.59462	997746		487780
259.62175	860022		500204
259.62613	895991		434879
259.62766	883575		548890
259.6838	974977		526946
259.74021	927370		554328
259.78426	938257		410549
259.86828	882718		416586
259.91343	874918		469284
260.00542	907956		367598
260.04309	934586		559423
260.15338	962764		481939
260.74304	1009962		407573
260.89983	1730115		545166
261.03501	921944		562366
261.31711	883845		395322
261.5637	887979		386752
261.58156	966318		487641
261.5941	896432		551156
261.75717	905673		458027
261.92758	867940		498732
262.19566	894221		578768
262.25143	917013		515954
262.26466	930328		504492
262.305	874270		591183
262.59307	907338		536199
262.67062	887958		232958
262.69216	899417		484005
262.85326	887153		514511
262.9971	858759		452141
263.02263	1073803		402758
263.11553	856345		425292
263.12369	890778		350145
263.58131	897503		535312
263.85534	861064		353653
263.93308	1008915		418652
263.95829	855319		544828
264.59934	890230		340529
264.71171	865286		490861
264.83753	952216		370752
264.96967	872876		522448
265.13132	873411		575271
265.13215	894787		444453
265.13278	929731		291375
265.30244	1001948		474698
265.30415	865500		456510
265.38838	961256		556747
265.65246	943246		444269
265.67975	898450		462768
265.72073	901912		390664
265.81499	865573		600406
265.81997	935974		521474
265.84018	924713		511730
265.84108	891817		426595
265.9131	892723		565013
265.92636	1105205		351664
265.92892	866742		466052
265.93215	866486		390252
265.95739	854970		462257
265.96774	984891		451809
266.07961	969035		428954
266.09523	862669		479590
266.09641	859853		477334
266.15774	1040982		441610
266.21438	875870		483355
266.29584	950634		356986
266.33957	961904		333193
266.39163	981047		290536
266.47197	868482		367281
266.50748	897671		522415
266.62129	1022359		560246
266.88953	12113341		447658
267.38212	899329		489354
267.50782	956435		537228
267.58209	917533		294397
267.65412	868519		365480
267.71176	902447		395286
267.80019	899643		352393
267.88973	1875527		472653
268.01415	949336		500505
268.32902	867971		458258
268.33101	927875		627805
268.38766	859403		416466
268.4307	968593		431007
268.43955	854290		458913
268.64568	868526		648190
268.88012	865997		427258
268.88991	7876303		460912
268.91241	978898		510047
269.11977	940909		439387
269.12687	1005550		418087
269.25737	1167360		539026
269.30741	857734		463855
269.43487	918295		481271
269.58893	922412		395753
269.5895	889132		456155
269.89326	872916		378312
269.91188	906838		462495
270.02101	968420		411205
270.3271	1031692		292790
270.42683	967321		456297
270.48401	858273		486786
270.61541	890290		384891
270.73766	932290		433115
270.84858	936144		495755
271.27475	897031		497695
271.31525	885004		335393
271.52543	876454		369904
271.56243	856875		526464
271.74128	989122		408963
271.84078	966222		507281
271.91606	885464		456704
272.00436	859235		456318
272.0994	1069167		407003
272.38099	859026		595795
272.39999	958357		381017
272.56343	880681		476390
272.99143	860126		485527
273.02422	858850		402855
273.13137	868975		412921
273.19803	858615		290116
273.39097	859151		476405
273.44368	888341		563327
273.97454	884950		423531
273.98584	857559		414359
274.04652	867935		556518
274.4999	927253		358520
274.5243	956568		475401
275.03177	948308		414831
275.15308	869347		532441
275.21744	884330		412147
275.78861	897069		510240
275.81688	881841		354667
276.11359	998227		508093
276.37633	884657		352542
276.37992	900210		522886
276.61069	919436		479603
276.62348	906126		500364
276.69001	979349		538759
276.72696	965658		405945
276.80837	2080419		496483
277.10424	876229		576809
277.22459	857234		351791
277.36766	872931		387401
277.52288	944116		496227
277.69753	866312		378116
277.85723	1069722		355597
278.57738	945258		482571
278.57968	905322		350843
278.61161	945517		403107
278.70067	955255		415156
278.80881	2074499		422203
278.85304	892552		507771
278.87956	875915		513016
278.9305	869264		463196
278.96903	922517		396442
279.02463	874907		567694
279.07807	866721		383876
279.13702	1140903		370418
279.15714	882729		252921
279.24119	946610		449301
279.27847	987318		303806
279.39374	920515		441214
279.72062	937702		419895
279.73228	863976		489564
279.81247	892912		501671
280.02619	874759		414489
280.4557	892213		558850
280.54309	958270		445609
280.61246	937030		464971
280.71466	891089		427335
280.96882	933164		276188
281.12702	1189500		413606
281.25191	1002505		359664
281.52588	871846		384182
281.69378	911159		347621
282.18863	957675		363904
282.36783	920317		428817
282.71229	869664		462950
283.02524	863168		419518
283.04394	874050		521577
283.05361	944707		422733
283.17609	876879		455836
283.26428	1233240		494295
283.26981	1068121		434274
283.43133	890025		319704
283.64755	973951		543856
283.68377	971651		422794
284.00159	933794		467337
284.14634	899761		475945
284.33393	977859		429737
284.35375	1005765		476806
284.38513	923208		312525
284.48103	870738		437975
284.5135	930645		383247
284.90006	1309691		513788
284.94484	869632		427654
285.03359	997896		523383
285.08453	931597		465295
285.28628	905377		419859
285.29285	950306		461111
285.39835	921388		405609
285.6144	920641		306839
285.76691	868944		483302
285.91484	1053790		475819
286.55813	933275		480019
286.62039	926625		437552
286.69079	904616		497472
286.71005	1108906		386132
286.81357	2532020		488962
286.90051	1300156		473861
286.95825	893377		472100
287.58816	980733		495128
287.75935	895757		518045
287.85174	867349		563111
287.90397	924058		392576
288.26256	948411		348339
288.281	1052477		360738
288.513	925523		321005
288.59601	892250		404311
288.74176	877544		393488
288.82599	869999		485015
288.93123	869625		424184
289.06909	892294		428811
289.54252	905649		301605
289.54479	911793		458167
290.00578	918746		377788
290.10866	1073636		342955
290.46662	1004036		384337
290.53166	867849		400062
290.64449	962964		372914
290.74698	865309		518812
290.79844	936481		315198
290.80798	917282		445266
290.87643	1027624		433150
290.92047	868396		537727
291.14057	902720		478023
291.22986	1028679		329208
291.53041	937058		361816
291.55957	1072996		414771
291.67191	872558		453834
292.03221	881166		384158
292.23369	913823		543855
292.45254	872626		452962
292.51791	886072		399205
293.006	1210338		426401
293.13069	884205		505279
293.33199	897278		468020
293.36986	948225		426187
293.62456	1007895		448999
293.67895	1014812		402170
293.85605	877739		350839
294.21567	948809		434832
294.2798	1005391		470047
294.30664	898257		358936
294.5061	1048162		394860
294.52055	864867		440476
294.52153	934243		468248
294.58566	908136		462399
294.74249	901493		453834
294.75446	939894		457652
294.91184	891524		443939
295.1527	874008		397134
295.16758	948761		358463
295.30228	870308		365606
295.32781	894374		510522
295.46757	911282		431765
295.55902	892474		362900
295.58504	897724		306562
295.67143	989379		419812
295.75146	867529		464023
295.77106	1007179		343511
295.86409	998483		304725
295.87367	960468		417771
295.92565	1010392		415268
296.12126	894696		424870
296.28809	909814		457916
296.70611	913176		499334
296.95818	895789		445029
297.02682	955698		428252
297.05885	875317		249981
297.10357	885304		510543
297.4238	955730		461757
297.43416	872531		488230
297.44348	925652		373818
298.16347	923278		516452
298.21119	877202		509221
298.66154	961334		379392
298.80541	873153		432089
299.06367	894422		500998
299.40767	908273		398322
299.69608	947080		316749
299.73906	885004		534363
299.90553	972313		396969
299.9389	982811		363794
300.0952	879400		456157
300.10883	1040425		412771
300.34005	954683		382620
300.55324	875852		548419
300.77648	1092957		412973
300.89424	983142		458272
301.0545	970355		406445
301.23473	918401		376173
301.2954	899461		325045
301.30337	891014		558014
301.3546	949386		496344
301.36661	1040523		252347
301.56672	880026		370912
301.68892	918692		273809
301.83637	1055663		353498
302.16993	1011145		493836
302.20426	879820		471817
302.7076	892147		394985
302.78532	953592		409411
303.04812	883981		469494
303.17089	956438		319084
303.20933	959257		398679
303.31345	906657		312904
303.36112	931621		444957
303.65167	1038139		420085
304.08585	1055836		370970
304.23371	956775		366696
304.50986	956284		389196
304.55462	884351		336824
304.57998	879873		337859
304.69953	902538		382598
304.70652	894219		327394
304.82419	1846420		403097
305.10943	955561		461954
305.22629	910258		417776
305.29361	906167		294937
305.36967	925629		403073
305.42768	927425		507809
305.67042	912339		506260
305.72772	891096		403712
305.79266	873949		516908
305.8562	978401		413395
305.91396	949030		212280
306.10808	920820		470536
306.15922	1135736		212292
306.36566	960264		358219
306.46029	1011215		372319
306.47761	913936		368191
306.61819	1189146		271242
306.67915	908959		333012
306.73057	896931		386142
306.89935	965935		496348
306.94348	882995		490690
306.97498	902965		395163
307.02895	970041		313699
307.1237	919616		434273
307.31853	949583		355101
307.46075	939097		425609
307.62818	882790		426704
307.63165	943974		411859
308.68275	918196		423750
309.30233	874082		299075
309.30901	875234		463836
309.31168	921058		442957
309.53955	875251		487061
309.63936	939771		383294
310.0751	953371		432112
310.24978	978216		429812
310.25412	1004584		368900
310.57237	911423		454142
310.58904	877889		445929
310.68335	905288		344297
310.89676	925015		330716
311.02977	910433		429874
311.2629	954482		309059
311.34682	895608		436880
311.47498	912770		419407
311.57469	912521		396694
311.71287	979475		284996
312.17859	936374		341793
312.82951	2026725		406858
312.91574	901356		242899
312.95979	891375		403810
312.96777	1939696		446795
313.0275	897140		371050
313.13995	880380		260317
313.37082	881933		321826
313.42758	1036305		413294
313.58755	1019677		309961
314.10444	934979		406544
314.11277	1102148		343956
314.37465	929367		303339
314.53738	973923		312793
314.81149	923127		377024
314.82997	1585528		382489
314.85481	898298		369017
314.96816	2032514		370631
315.07048	1058442		376948
315.72458	902074		398728
315.80876	1013056		294151
315.83089	880834		345037
315.85862	1099460		393275
315.97593	1006285		414182
316.10959	956630		359328
316.11686	890839		371773
316.12152	886231		405521
316.266	880354		547561
316.33777	894439		564601
316.54812	908919		321143
316.71053	978435		314958
316.75256	919302		420172
316.80026	951049		378569
316.88727	1500688		481235
316.98283	916503		363982
317.08296	913950		452437
317.24267	902186		370229
317.45853	902458		415591
317.68004	934731		438622
317.84055	937302		361768
317.85523	921304		341530
318.06908	917863		282943
318.21342	990962		321640
318.28211	916855		390517
318.29276	888184		452591
318.37728	934270		426704
318.55352	891915		350932
318.64247	968722		264257
318.73865	933785		315431
318.82043	888735		439135
318.90556	4397222		394821
318.96994	946346		414763
319.11228	1126197		272394
319.18881	876731		346565
319.39256	987082		334573
319.63262	886236		473010
319.69564	925665		387527
319.82318	1059818		345705
319.98795	909302		364076
319.98966	1008631		429472
320.08067	914429		299237
320.0939	958462		495886
320.14567	937090		364369
320.59	1002020		309778
320.82284	1151285		409116
320.83458	1127222		487150
320.89319	1093435		339646
320.90598	3620156		387929
321.57457	876654		404713
321.76885	923901		339014
321.84131	920450		385543
321.88673	943494		281592
322.06593	928915		375769
322.07564	929940		384564
322.13451	946328		394701
322.47121	880306		333786
322.61465	941501		309178
322.93996	999638		333492
323.01169	928219		318276
323.34395	1091829		290629
323.62752	1065355		312572
323.74025	959551		189052
323.83691	906779		354792
323.94426	1024547		338094
324.04304	1118507		329918
324.24695	1127482		321758
324.53033	895312		530143
324.83789	981096		354441
324.96162	1042034		440965
325.10168	882685		343905
325.13361	890495		369790
325.3536	920976		366682
325.51932	887069		227131
326.47838	945641		402591
326.54282	880366		357897
326.81132	879875		394971
326.95377	960782		326403
327.1309	902940		537376
327.20465	938018		335472
327.27895	920616		343383
327.36137	892975		369476
327.40986	900403		356705
327.52095	907836		418756
327.771	939088		383155
327.81538	966739		368372
327.82995	1069140		362703
327.897	895962		337933
327.99686	886626		436030
328.69646	996890		313891
328.72795	882973		329468
328.82445	1664933		407482
329.09599	951995		374299
329.39983	981203		452251
329.43785	1044183		311546
329.70681	1012717		276639
330.09543	903565		297342
330.2173	878615		439379
330.66435	883260		423489
330.82482	1459273		385645
331.05824	912220		256129
331.13226	1064291		334084
331.15899	912997		418516
331.16508	910181		356850
331.17348	1048678		320961
331.30533	969585		351230
331.68171	893841		346580
331.82545	1031069		379455
331.84649	903455		293945
332.20383	930749		397420
332.25061	930241		387947
332.31557	894918		415708
332.42852	1081296		407756
332.78035	1104366		253329
332.82498	1029490		205723
332.86122	941045		350480
332.87525	965622		387618
332.8873	1102583		364359
332.98554	885248		310406
333.0581	1110790		350406
333.113	926986		437791
333.28594	924953		322003
333.43578	1264934		354925
333.55532	1085233		520103
333.55683	1459505		354852
333.55766	4037937		396603
333.5586	2179377		464726
333.56006	2412849		477772
333.56117	1676593		449179
333.56317	3089713		245046
333.56529	2455858		373272
333.5676	3317554		168493
333.56955	1671090		229045
333.5703	2817330		340416
333.57188	1091378		579998
333.57317	1949490		402807
333.57445	1519410		384185
333.57564	3136818		346711
333.57734	1315123		314657
333.57855	2064179		264194
333.57983	1884211		231186
333.5813	2984755		236033
333.58357	1645875		497390
333.58467	3264819		428507
333.58647	2535731		222747
333.58801	2936628		218517
333.58977	1557300		248229
334.32401	1017971		322818
334.38856	920185		317913
334.63654	957583		446576
334.64166	1252495		305262
334.70988	982421		385016
334.79035	889244		457518
334.89782	4588966		386129
334.89889	913830		934822
334.9826	952749		338152
335.21281	895554		320415
335.21745	945090		303011
335.2359	939460		456914
335.25077	883909		395329
335.709	1011694		389637
335.78685	1100533		389283
336.01657	949513		413203
336.0941	899088		401037
336.13826	943124		375593
336.25737	1030175		421507
336.48368	989364		294660
336.91616	903259		477158
336.96128	937183		289947
337.01119	1010532		379278
337.03906	1001574		471231
337.18849	901236		243186
337.52637	961427		354582
337.68984	962978		335906
337.70664	901667		322071
337.72802	1018149		252578
338.00301	920255		388874
338.26211	897751		324158
338.321	1165788		310734
338.45315	883817		303854
338.72547	885250		396635
338.76506	1006086		301283
338.94867	1022743		295741
339.21948	963633		394445
339.51526	909517		306391
339.57887	902995		398901
339.70921	885599		431766
339.79813	1001832		367990
340.3672	978975		277912
340.61749	930743		400733
340.77531	890694		232572
340.88759	1752529		370515
341.17493	895725		370829
341.81075	888364		383747
341.81187	1009196		462266
341.82428	1060909		390304
342.46326	921709		384148
342.83983	908051		241391
342.85057	930452		345814
342.88774	1016728		389018
342.99449	940194		396379
343.15589	1009843		427856
343.31528	974147		295444
343.80639	945909		404158
343.98392	1023240		368008
344.16918	922907		396773
344.21802	1049888		360094
344.34345	945197		400453
344.46425	939065		366496
344.4787	1077819		273656
344.55123	927298		280578
344.57293	991045		347832
344.77639	932826		297273
344.85349	917730		277220
345.28318	970639		370306
345.37024	912280		388723
345.64134	924085		355523
345.88801	984015		408288
346.19578	943088		441007
346.24408	981237		179589
346.44282	883723		387300
346.45697	887180		241736
346.47303	888846		399036
346.48479	934415		397370
347.03399	886987		340217
347.07889	1038415		301076
347.14523	1029975		395772
347.31836	984682		360199
347.49305	899709		414129
348.00578	890037		333882
348.363	908764		382155
348.42906	935140		244876
348.47926	1057257		262089
348.71634	946820		250530
348.86936	1008149		232425
349.38065	997710		330168
349.63208	891499		388554
349.65544	895341		365301
349.74646	927096		304859
350.76595	913388		341083
350.80634	2990065		368984
350.87181	1888248		385541
350.98368	893701		269691
351.23841	932642		350002
351.28629	1005352		337283
351.35785	897328		420064
351.41902	955703		270276
351.83823	997736		378077
352.23577	956055		245779
352.2553	957593		430957
352.5418	969659		339757
352.56634	896445		309997
352.67281	893642		457205
352.80673	2101466		330441
353.06017	1047544		400200
353.38988	971807		298060
353.87729	909657		403965
354.17138	900605		237939
354.33429	908432		299600
354.52844	908456		439633
354.72926	947520		242142
354.97595	953822		279153
355.00559	1019617		365187
355.02441	949476		310464
355.30053	940037		425674
355.34343	900363		252516
355.55377	1036068		345283
355.66072	895281		392404
355.74291	952379		347118
355.79803	1025346		274536
355.81956	916037		302479
355.82801	947782		405193
356.54668	958879		336721
356.62711	939944		276556
356.62845	922537		276048
356.72165	1031092		263337
356.78224	919868		276608
356.82047	927680		348355
356.82484	1089985		349708
356.95734	913361		300570
357.27308	911225		235826
357.37236	948741		328256
357.50556	988438		359282
357.80441	906555		217028
358.01575	941910		241928
358.81173	1871291		329594
358.89808	1754566		407245
358.96037	896973		372632
359.20064	1032684		427498
359.20192	933868		445974
359.34652	889087		308267
359.43843	1133067		294519
359.58562	1003677		293470
359.7304	1121840		349424
360.18416	991850		332711
360.81214	2770107		370350
360.89829	1185223		354085
361.0055	925140		296221
361.40914	1079049		320177
361.51807	1010711		242513
361.6092	1123619		300248
362.45842	993939		299566
362.52602	1117084		355556
362.56754	1164961		334401
362.71794	913077		389662
362.81238	958401		383389
362.96698	948822		214707
362.98117	942040		366810
363.0953	935847		215716
363.12612	940907		278577
363.15872	985839		387266
363.29103	928769		258747
363.31572	906500		374480
363.44094	1018389		359244
364.1465	978803		286647
364.31926	1025162		273439
364.5113	964772		303026
364.56919	945579		393357
364.59436	981679		374672
364.97161	1903330		358733
365.05297	933997		230593
365.10474	970484		266092
365.8408	946775		332031
365.85011	962520		235724
365.95861	973415		223817
366.07711	1067383		350441
366.36405	994718		334210
366.5273	917941		436344
366.54421	975799		380974
366.83429	917215		353705
367.1749	1027085		298140
367.40791	896557		319471
367.44108	1000242		318599
367.44328	949810		210387
367.75231	943709		282755
367.85919	898668		487990
368.06045	968839		230192
368.21616	1027741		405955
368.73739	1208805		262850
368.79137	972525		424449
368.81697	1740528		324136
369.07566	949396		270889
369.43927	894535		347450
369.73019	935792		324409
369.82568	944765		280195
369.97308	1066130		326495
370.10604	954020		289546
370.81735	1467912		366836
370.91293	899350		308304
371.13748	905782		386206
371.47659	942182		399885
371.85744	907932		380809
371.88184	983199		331387
371.94621	944296		433000
372.12559	949954		313834
372.19256	983499		381662
373.19132	1000282		287712
373.354	912369		239529
373.5476	924045		396497
374.10946	939870		249374
374.11092	1005278		250548
374.21353	933101		335605
374.37785	936453		397814
374.64012	988458		321567
374.66083	916269		317198
374.80622	911170		407128
375.3931	962199		258461
375.55981	987568		358057
375.66483	972991		314697
375.85647	1095131		356661
375.86195	914908		329218
376.09149	968189		408832
376.37753	947111		240334
376.72224	1397593		353602
377.30224	931502		287112
377.33536	945843		279065
377.4097	1008062		402204
378.14276	915242		243501
378.27604	980797		287218
378.35076	913736		396319
378.3935	1042255		298892
378.75013	904067		378085
379.09224	1024950		309706
379.46954	919534		383826
380.01947	923071		247226
380.0868	982857		303710
380.10403	1024844		344433
380.94539	1243593		353036
381.00757	904658		241659
381.074	969436		340037
381.22609	920563		282509
381.35475	932102		357598
381.36624	1023752		252552
381.68888	932024		257047
382.30328	994452		265989
382.39862	900259		314666
382.52666	933558		363874
382.76734	953818		323308
382.78161	975708		278140
382.94522	1043189		321820
382.99215	993276		274762
382.99995	911613		294347
383.00208	956797		206813
383.34308	941873		395787
383.50312	1019977		222148
383.63745	942173		380898
383.7343	1026156		226573
384.07428	1038239		300816
384.10564	951972		366226
384.13717	979369		326791
384.38808	971726		416810
384.55671	900584		257327
384.72761	1384962		365986
385.00278	946732		322926
385.08933	992057		226273
385.37838	922469		320703
385.56161	924544		314608
385.74285	937372		276890
385.89342	912051		317599
386.27606	941037		224396
386.41956	918531		188534
386.55183	901143		310673
386.67613	906538		349830
386.72808	1069874		361305
386.82742	1021761		445781
387.01892	957790		306325
387.15055	938226		186595
387.25472	928770		241311
387.35629	915090		297875
387.84535	988380		302248
387.96468	974830		300629
388.36509	934956		375453
388.63414	910677		409925
388.82774	1615475		341771
388.91587	920192		413803
389.19112	926634		280521
389.2808	906680		322042
389.36318	906181		366753
389.44107	935633		302682
389.65311	906481		361370
389.84571	922639		354625
389.90487	950808		220265
390.10772	999223		293912
390.26814	1130320		378392
390.45068	946028		353471
390.54358	928122		298587
390.94704	938424		377665
391.43706	926980		224579
391.73171	1051697		262366
392.03423	949344		322113
392.08403	966247		231833
392.36043	914066		323049
392.49083	940198		311229
393.0158	1335543		256563
393.39058	1003313		251218
393.4321	948024		249754
393.66078	917339		281853
394.53563	939491		323517
395.0455	917554		340663
395.82581	1111723		285595
395.91917	987577		288318
396.37339	1000447		242371
396.55086	1135899		373965
396.7002	1025842		297538
396.72173	1068854		322857
397.06023	1000042		308358
397.0868	1041774		279761
397.88438	1212650		266481
398.11436	1123854		258494
398.50045	922186		362246
398.5047	1028682		397409
398.77918	1062005		313742
399.0089	969881		297707
399.9009	914724		388512
399.98003	1043504		312691
400.0445	918842		334168
400.36716	932716		236449
400.58861	996494		232392
400.60185	982928		181802
400.78928	940974		436653
400.88867	961469		334040
400.92708	911299		285623
401.00232	907983		297494
401.83785	916305		244178
401.86174	1061460		311189
402.19845	908681		383315
402.75932	929760		321327
402.82518	954090		394384
403.2076	916517		311759
403.47272	937551		331301
403.88291	918926		391998
403.96302	1064475		177431
404.29254	918990		300522
404.38247	1066460		367939
404.41831	1102050		284712
404.50264	919407		233148
404.59548	920573		376894
404.78811	929307		327108
405.21824	1102558		225094
405.92382	946635		259659
406.02645	919259		354927
406.23477	1152507		233259
406.3751	1048593		260629
406.37694	941841		247150
406.5333	963369		357683
406.55247	1041196		259616
406.74246	1084490		230353
407.55466	931783		327157
407.66721	1078745		288798
407.79943	917485		285507
408.01125	1001998		317980
408.18071	962600		273370
408.27847	986679		309734
408.48838	1002584		344805
408.88258	916117		266838
409.02837	932523		335809
409.33748	1003739		230813
409.47999	950001		371103
409.84078	958760		328272
410.10181	917840		329236
410.1323	1034069		304695
410.32366	916723		236324
410.61739	947360		264320
410.68708	1192619		256424
411.08824	970216		378063
411.12903	952046		290455
411.13691	1096688		302335
411.32582	992525		253144
411.43049	929309		296370
411.53339	939053		245953
411.88122	968546		245665
411.97818	968817		282907
411.99418	1169011		347964
412.10745	1042565		359807
412.23293	963224		346803
412.46295	922555		282778
412.58759	1061070		230799
412.79546	1560814		279782
412.81979	918002		333224
413.07578	927257		258689
413.61123	922731		333944
413.89865	915094		288976
414.28597	1019601		311814
414.53257	921335		279397
415.16554	943191		364118
415.34261	953458		230189
415.60417	1061786		302357
415.80903	1082041		311958
416.15705	1158894		237514
416.28964	928258		363386
416.31662	916998		281371
416.34335	1110794		217867
416.90122	1565022		340588
417.1936	1104778		252410
418.36434	980539		362043
418.70761	919406		354520
418.76958	975991		256543
418.79266	1205371		289267
418.90148	1132683		361402
418.99238	977049		298538
419.1132	1092779		273684
419.74659	984330		333448
419.74882	937994		290635
420.26546	932695		215726
420.36501	1043814		259690
420.53606	984959		349370
420.54006	1051008		337318
420.56525	958852		262761
420.72016	921499		300926
421.14271	1049561		261856
421.16567	932573		328553
421.75368	927796		320321
421.75875	946229		281383
421.98793	973143		224702
423.13677	1056000		193934
423.63715	964681		291497
424.0984	1062797		281327
424.30567	940459		271952
424.76489	1134574		343297
424.86078	1003516		247103
425.11272	951073		288376
425.11981	1040930		353529
425.13298	1071140		272624
425.71406	1026168		237290
425.90968	991381		299554
426.27489	1008394		160548
426.27959	937674		383826
427.51935	1075837		254320
430.23573	996351		277612
430.41175	961048		287950
430.65993	990779		264705
430.79609	1566542		280066
430.90264	1031133		168520
431.04429	991857		233490
431.06704	933236		325532
431.83715	987615		257204
432.16638	1005325		320135
432.29468	949023		306840
432.3505	948263		357100
432.37917	1013675		183205
432.52591	1000255		257481
432.71009	1077849		338482
432.79636	1387620		278417
432.80978	1015398		445281
432.9062	937332		275859
433.93436	1117953		304049
434.09033	944151		296144
434.64804	923747		257267
434.8101	1607033		289038
434.98131	942224		178660
435.04957	1159065		345745
435.05316	1181594		299696
435.81042	1090304		212670
435.82729	923651		287583
435.99385	935705		307647
436.27935	953407		315997
436.39666	1094735		296221
436.46424	977496		286262
436.75926	945280		260069
436.81037	1063047		372267
437.05237	989991		169510
437.11716	926896		318205
437.42899	970457		199993
437.5033	964579		184572
437.71009	970495		323734
437.94886	1042718		315322
438.63433	993401		232896
438.8877	1077274		198392
439.52423	1061613		273044
439.76646	951053		227738
440.21889	985671		315643
440.29397	980817		281412
440.37591	1048668		248634
441.36942	936668		193007
441.62052	1057020		241874
442.68477	1025155		210276
442.94371	1036451		226362
443.28105	1038798		226761
443.64701	973308		353074
443.87095	1012247		221469
444.06039	941615		252444
445.09195	976814		241248
445.2737	960197		254821
445.60759	1104110		287466
445.66178	939764		268262
445.74748	997631		266473
446.14377	1057071		256579
446.47849	1005399		271577
446.64016	1152875		227305
446.7878	976253		384963
447.13801	975527		189074
447.19919	941742		228040
447.20073	958382		254159
447.38576	948677		262368
448.4294	1065281		250544
448.55603	1049680		246126
449.10893	1024145		347427
449.11827	937618		226144
449.57973	932808		260780
449.82754	1133541		276247
449.97014	1045494		244325
450.20558	958737		269425
450.30286	1023260		348288
450.40494	1073704		204762
450.72031	3557197		274940
450.73449	963406		354472
450.88154	964447		260689
451.77574	1014982		311680
451.8648	946128		234257
452.1449	993008		312361
452.77168	981047		281145
453.2618	941166		355104
453.54431	1009550		290832
454.1029	951500		241146
454.233	938203		250051
454.79646	957722		279442
455.32646	932308		186677
456.24961	990649		276419
456.6967	933098		254251
456.79699	1451509		340189
456.82217	954488		137672
456.91574	992514		255921
456.97531	984072		228628
457.02671	1127438		203576
457.04137	1030416		279824
457.08922	936213		304809
457.3231	1057326		319649
457.68695	949845		225998
458.3762	982687		333243
459.00436	1068770		272087
459.20328	969464		320299
459.7305	939952		195200
460.39896	940150		305215
460.55409	1026694		280096
460.74487	1000090		231870
460.79014	967839		250703
461.25167	1235407		297854
461.79842	934152		263312
461.8907	995858		233760
461.9265	944150		328471
462.81794	1101682		196731
463.92929	960868		180913
463.94155	952293		230345
464.07452	1039858		233563
464.58437	996646		242910
465.22223	954215		324656
465.38729	959352		293154
465.98087	985011		337788
466.00765	999350		271849
466.01986	952887		201400
466.69444	1011195		228693
466.876	950541		267105
467.01082	985627		262083
467.60215	1056853		293497
467.754	1211492		246186
468.10307	968583		260672
468.20527	980241		207112
468.60857	939961		286601
468.83081	2099919		272545
468.9128	968407		296281
468.99499	1183967		248924
470.3337	947810		169496
470.8312	2156435		297013
470.96307	1270687		227791
471.22686	1000121		270048
471.44048	969293		164212
471.5675	1007322		195299
471.71417	1082344		220721
471.9094	1016827		229940
472.20246	973847		239311
472.70213	1164871		219009
472.99429	1018211		263363
473.9449	942270		219660
474.16132	968659		249305
474.42828	952300		218284
474.51951	991989		314594
474.61961	985342		240101
475.80435	1092975		172977
476.2523	1037081		150408
476.32227	963488		302557
477.58939	1027351		249985
477.73041	1035556		170101
477.77758	1050920		234204
477.81226	965164		159103
478.76197	990340		212236
478.80415	957576		358342
479.56823	1022671		286702
479.67316	947417		196951
480.1693	1036551		248953
480.79383	2615105		261989
481.15939	1017955		235983
481.16076	1027683		265759
481.35496	974965		241477
481.39442	945529		276566
482.29545	950220		245479
482.98179	944907		255987
483.12657	972056		247028
483.1375	1002010		258314
483.45646	1088567		289420
483.59636	954180		255157
483.60642	1004485		191715
483.70488	950606		255465
483.87721	963165		184400
484.03822	1085548		242937
484.58061	1040542		231079
484.92355	1005501		157207
485.3915	978664		296084
486.22252	946740		283443
487.03359	971390		277038
487.58494	1019825		216324
487.89686	1047245		158644
487.96201	993235		258534
488.27628	959216		253612
488.28625	954097		227682
488.48604	1117187		178476
488.69752	1062422		294174
488.81698	1041953		267421
489.55062	1112036		161963
490.14568	1010714		195670
490.3387	1001900		226457
491.8816	987192		250525
492.36356	950884		271021
492.71871	1046660		226257
493.29374	1055673		192643
493.36922	946880		233053
493.62627	947671		192252
493.66303	968666		251361
494.06438	1141759		218195
494.68715	1007928		242355
496.41118	981461		245885
496.70283	1070576		253704
496.7681	1027830		306677
496.78907	1061624		262609
499.91655	991511		164547
501.128	1118599		226727
501.18308	955532		246411
501.26752	1062548		255292
501.29129	959382		250818
501.30269	957080		238063
501.36194	1105565		260365
501.51452	1004971		199428
501.57192	957873		175386
501.61234	974772		280681
502.75315	1057054		233890
505.71799	984884		228239
505.8985	977989		255238
506.03501	1033042		185249
506.32676	952174		190938
506.48778	1104509		321052
507.43452	1051095		225342
507.74124	1118964		285124
507.9013	989443		233968
508.60752	971591		204294
510.74893	994133		161736
510.84923	970271		177468
511.17195	1057342		224559
511.18829	982592		297419
511.1945	964417		243574
511.99158	999566		255364
512.40618	1053367		175249
512.40827	974007		205907
513.07705	1161721		188917
513.45375	1035806		220732
513.53981	1016614		279734
513.86319	1057734		146211
514.40725	1079164		281937
514.55664	992395		269670
514.7131	2050971		246139
514.94012	980913		269696
516.58732	994903		249031
516.73595	990310		268800
517.02307	1113731		259421
517.10032	1220491		210969
517.53347	1097271		143745
518.39306	1051662		226617
518.42836	966802		125557
518.79657	1002296		271749
519.32223	998254		260015
519.46326	998012		238137
519.51889	1029250		214211
519.62	981901		206149
519.77379	1211293		242583
519.88473	957352		222670
520.70512	956413		299322
521.55934	998487		268196
521.62829	1029982		195407
522.24338	966047		171502
523.86826	1057869		244741
524.04334	1206623		219125
524.27666	1109368		220110
524.42691	1088393		242885
525.18053	1042650		227553
525.55731	1042947		210275
525.56863	999685		177229
525.79629	1041950		240650
526.0097	962869		234170
526.17374	973127		189164
526.30097	1057365		252185
526.3505	961882		221065
526.94465	1170332		225044
527.81248	974588		317698
527.97615	1073935		265540
528.0473	1017623		294047
528.95422	1013628		272186
529.35396	1025962		291366
529.46535	960182		270856
530.51709	1078318		248075
531.20061	974461		192849
532.14258	996586		258083
532.30428	1076989		229864
532.48792	1042707		244773
532.54168	1117977		232583
533.35823	998777		155411
533.46167	1127813		214721
533.92073	958396		271630
534.21257	1025503		225683
534.24785	959715		218101
534.78623	6663204		218939
535.27836	980575		239798
535.76785	1079706		226142
535.93293	986030		249694
536.78677	9829654		221180
537.19182	1048392		226234
537.39905	995170		224462
537.61308	1068412		152377
538.78707	4609551		231191
538.89573	971036		241612
539.22368	968774		276330
539.33098	1098323		167858
539.36056	967255		292404
539.78251	1033613		182792
539.83959	969108		219411
540.73304	966918		234930
541.13247	1041721		261897
542.27475	1101518		224093
543.01247	993327		253554
543.58495	1030523		225175
543.63758	1100418		210800
543.99668	998706		160952
544.52672	1047289		226826
545.43638	1195380		239363
546.49908	976517		134194
548.01959	1006040		198386
548.45696	1090069		200495
548.87384	1035088		190899
549.20332	1038206		220551
549.50021	1042600		217855
550.31517	984093		311757
552.0014	971024		228688
552.72756	993402		197738
552.73484	1061755		220012
553.54039	1095666		242642
554.73228	1057443		229226
554.9472	1144003		236636
555.0927	1088728		244275
555.75669	1047100		203138
555.77383	984895		287509
555.95677	985178		139002
556.54738	994739		194341
556.76827	17737684		211773
557.10642	1067528		226760
557.77109	1394541		164101
558.753	1021188		222051
558.76869	24758534		209863
558.92125	974878		198926
558.98851	977192		249804
559.77218	2106786		199701
560.76911	8563261		212733
562.30288	1047085		209581
562.86958	984199		200306
563.24057	1038274		270137
563.69071	1032201		124170
564.90085	1004235		248956
566.07481	1008007		240468
566.60582	1118685		193888
566.61614	984799		163211
567.17367	1013561		235537
567.34223	1031253		260436
568.35138	1247481		225938
568.35665	1062138		306758
568.55173	990234		215262
568.77264	1109310		230322
568.88577	1037136		159875
570.47197	996181		172087
570.6541	1010803		187374
571.62897	1060117		242017
571.85163	1019194		212514
572.39649	1036948		178798
572.7423	8860110		214249
573.07363	1111045		226002
573.75299	1014390		240724
574.60791	1011974		201108
574.65216	1144077		217946
574.74271	14324508		207203
575.70245	1134270		192339
575.7462	2014661		167419
576.74306	4715629		219839
578.28723	1006451		200191
578.39054	1192068		157236
578.95399	1034212		170267
580.25979	1032387		238793
580.83441	1103653		213028
581.01369	1004356		163893
581.23945	1070442		189438
582.06392	1033463		170372
582.46003	991291		189028
583.95377	1085756		160353
584.63163	1043889		158170
584.87742	1008091		196362
585.23155	999192		149853
585.91557	1178254		184566
586.4662	1050349		200340
587.53427	986278		203070
587.75113	1099723		231581
588.32325	985390		194336
588.58279	1053275		191043
589.07372	1044656		228324
590.3086	1001862		240099
590.67747	1022790		130328
591.14322	995862		200857
591.34889	1135674		198263
591.61172	1013352		301126
591.72179	1042811		207026
593.13679	986736		205842
593.29984	1173388		181271
593.70582	1027027		283120
594.15881	1006113		182621
594.62819	1106291		168149
595.41693	1071867		224604
597.82487	996508		224775
599.42806	986290		181242
599.65618	1050073		217562
599.76415	1173996		170830
599.85358	985851		187084
600.4792	1076583		185500
600.60597	985725		239794
600.96947	1100219		181600
601.09604	1103569		154891
601.47981	1016595		242003
601.62	991276		141039
601.97043	1012072		156319
602.90093	996872		258323
603.91639	1142454		208164
604.28779	1153782		233418
604.38872	1022215		191080
604.93409	999652		148206
605.78547	1098998		197608
605.85134	1021953		209654
606.80817	1164964		205022
606.92344	999864		199034
609.25624	1009987		173077
609.90654	1033393		181573
610.14222	1069273		171446
611.07772	996982		219048
611.60566	1111759		166226
612.17641	1008174		221487
612.30897	1017413		207077
612.52398	1121129		154116
613.40509	1080060		184759
613.68803	1013035		204760
615.99009	1101479		240950
616.02387	1010349		178989
617.12594	1136738		161457
617.24489	1191798		174456
617.8182	1092051		194002
620.90299	998854		170926
621.23858	1005052		214581
622.34006	1198764		200077
622.66442	1096672		177210
623.09059	1035043		254340
623.20692	1124406		135431
623.27634	1085505		179885
623.29357	1032259		168313
624.44436	1058297		287721
624.68153	1006366		180863
628.33625	1072723		180986
629.01713	1163963		213020
630.87767	1255891		171719
631.32528	1249302		180890
632.1506	1005201		246235
632.25069	1260192		146782
633.40677	1129802		204854
633.89581	1044113		184584
634.14916	1290678		162865
634.24222	1071555		194728
634.53123	1176557		220336
634.9208	1042982		192677
635.52808	1069693		179214
636.08729	1092813		229316
636.67755	1041697		233072
638.26572	1154048		194639
638.35921	1247757		186888
639.1028	1023604		228978
640.88522	1040232		236928
641.03485	1153916		172755
641.95546	1024504		205483
642.51041	1113154		190866
643.06592	1060491		175462
643.58178	1005775		187068
644.10875	1195540		123328
645.30754	1245614		210188
646.09855	1064467		209671
646.39532	1073721		197926
648.8048	1017700		162369
649.33117	1074340		146994
649.82155	1120735		147118
650.27216	1107990		190215
651.08891	1044087		185096
651.35524	1096343		183307
652.17011	1090807		195315
654.16747	1019870		211765
654.6075	1019664		166808
655.50028	1053301		203693
656.19792	1049667		150400
656.34126	1338579		120867
656.40854	1102042		194958
658.08843	1034643		210753
658.63723	1027791		137161
659.88774	1079894		208245
660.76224	1018547		222755
660.91446	1032899		196378
662.14232	1367876		187213
663.33413	1063360		194924
663.8113	1156081		194317
665.08805	1044851		134624
665.70575	1126065		151173
666.6177	1216781		185995
666.95631	1115438		196173
667.05291	1118520		183577
668.10824	1032608		123144
671.31559	1112536		161964
672.30799	1061175		140985
672.92773	1038449		195311
672.9983	1017464		165068
674.25191	1019374		196961
676.28468	1054379		201801
677.63155	1059623		205797
678.21878	1169245		213105
678.30465	1076069		170046
678.93672	1143198		205954
680.71491	1032767		214105
681.71657	1040538		183498
681.77379	1074079		163118
682.41384	1020632		232723
684.03588	1057129		129121
684.20346	1067896		155011
684.25695	1104252		223455
684.82268	1018287		190795
685.05092	1100739		135844
685.51367	1066732		167750
685.85233	1090058		186270
687.05865	1097844		196584
687.24691	1168261		135737
688.32168	1106660		168175
689.58786	1094483		155770
691.50937	1130492		206539
692.39506	1149513		174046
692.84704	1125745		136050
693.85416	1065929		169020
693.93948	1066704		188676
694.46666	1143295		112824
695.23706	1089346		170210
695.35573	1057869		127724
695.39205	1076048		149560
696.65821	1061055		151508
697.28097	1308150		140226
697.30572	1470456		200216
698.77064	1176697		176980
698.86334	1073793		175936
698.92158	1036935		204103
699.53409	1188541		124011
700.17196	1274613		148134
701.22674	1045331		204951
701.87997	1151373		203651
702.11253	1069730		128502
702.34273	1086646		162313
703.93484	1154629		185977
704.3658	1107564		160281
705.59095	1138395		128825
707.27035	1047412		177118
708.1023	1085376		152842
708.22748	1166027		107375
709.73592	1220183		103604
712.34785	1369420		171570
713.45909	1093046		206698
714.1802	1115899		135735
715.57157	1036929		173539
717.95008	1162603		198553
718.15352	1068927		160399
722.31038	1166628		176106
722.58656	1091393		211161
724.47289	1062919		195115
727.36921	1050175		161561
727.42275	1072965		156690
728.49231	1055675		216599
728.88663	1038310		135647
729.60658	1065527		178301
730.56511	1244323		154231
731.33561	1064955		153810
732.85188	1128875		154443
733.19945	1111507		164127
734.15814	1186885		162095
737.79862	1136127		179866
738.53153	1114203		209662
739.18141	1045677		174632
740.15512	1153321		191024
740.2277	1147699		215308
741.26989	1053625		149439
741.53838	1051613		185208
742.19458	1173043		173970
743.68804	1172218		186252
744.14392	1125176		196492
745.21103	1115337		158967
748.13675	1139556		193575
749.30202	1072140		148174
750.53493	1072832		208626
751.57115	1231706		177428
752.43259	1112539		165567
754.78228	1193281		162109
755.71536	1147858		182965
756.54753	1076820		175094
757.26462	1112773		181411
757.34683	1137362		189797
757.37046	1090262		163224
761.64396	1085320		152716
761.82474	1132454		169851
763.26963	1142422		185383
764.37779	1324623		117805
766.50087	1106615		205791
767.34337	1191240		152000
767.50609	1165156		159800
767.55498	1122156		113831
770.31348	1111883		211778
771.2825	1063926		129945
772.8221	1133318		161181
775.31078	1190340		140905
776.28285	1143156		224675
776.89974	1162212		155293
777.05253	1071103		155369
777.07891	1076996		153465
778.44373	1101565		156772
779.21166	1102218		197651
780.17485	1100091		96064
780.95339	1382091		149560
782.58936	1076475		145460
783.25778	1076343		109302
783.60356	1316024		150573
785.06823	1187786		148858
786.20029	1164959		146035
786.88936	1084705		191631
788.88697	1242268		161026
789.41989	1071873		151429
790.69949	1170421		142560
791.02452	1137458		138184
792.24014	1149723		166411
795.74574	1082811		123162
795.75831	1114558		114260
797.90221	1183579		168592
800.52947	1225558		96497
803.89892	1119713		152532
805.70441	1126718		167693
808.4568	1095506		174690
809.04877	1144260		134163
809.62574	1154868		121217
810.25555	1167789		130663
810.49599	1234395		97807
811.41182	1144204		156179
811.56274	1224617		138174
811.96745	1123574		118806
813.48018	1099289		127631
813.50344	1162013		128542
815.07495	1134154		178132
816.23501	1196840		114513
819.58644	1174437		156668
819.77998	1207753		146093
820.96337	1164968		147526
821.80926	1196360		166561
822.97456	1117986		144072
823.63918	1177246		91355
824.28597	1149207		164920
825.89953	1118275		140625
828.5298	1410599		140072
829.8224	1099027		165921
830.5754	1117596		166516
832.15081	1180345		164819
833.30281	1192839		137521
833.97482	1128447		169530
837.036	1141788		159019
837.49326	1264748		177882
837.74274	1254039		133902
839.37321	1126578		106559
839.56202	1116626		142325
842.76531	1177843		126480
844.11214	1119957		135099
847.08305	1182909		136696
847.35906	1384170		139143
847.44369	1349880		160500
847.97802	1113422		197482
853.38475	1101985		142941
853.4454	1129130		144800
853.50537	1107124		164232
853.83274	1113830		156960
854.44716	1306948		160477
855.12758	1599659		104575
855.62619	1269239		144616
855.74935	1106441		123414
857.41485	1155075		130611
858.43869	1178779		119444
858.84261	1241558		144789
860.16584	1231000		135656
861.16658	1147689		167420
863.1788	1183817		164067
864.41537	1115895		122850
866.93119	1151573		154635
868.89853	1106274		130214
869.08697	1358459		108934
870.09167	1150466		141936
870.32319	1121826		162320
874.39345	1147450		142095
874.68312	1126496		129344
875.71597	1107685		135496
876.13893	1111323		134007
877.22736	1286566		127554
877.50172	1216457		137639
881.2683	1150879		158466
881.81417	1233890		133250
882.01699	1150459		155957
882.59975	1137730		154310
889.95518	1130923		128108
891.36887	1249358		159206
894.79985	1342930		137187
896.0029	1260632		148942
899.93954	1307656		119469
901.30232	1445019		140723
902.27609	1131267		162174
908.2662	1151096		105787
913.08576	1152355		182449
913.66058	1132445		130162
915.6197	1141345		118413
915.85692	1394809		109698
918.13018	1212762		124491
918.96079	1263531		134659
919.15502	1198526		119865
920.85414	1193060		113457
921.89585	1171145		142473
922.18965	1387750		121992
922.64054	1336209		81513
923.46346	1264737		79419
925.32165	1168403		114137
925.92473	1249613		104417
927.01753	1308341		130427
928.83375	1169250		120061
931.03129	1142833		92588
931.81101	1175674		156851
936.45068	1189164		63111
937.34463	1209215		104938
939.52707	1172297		95452
939.71968	1165659		105470
940.09107	1199485		162105
941.3908	1142773		132947
945.24047	1224535		127883
945.38125	1173092		119365
946.15678	1156524		115430
946.26098	1177781		104209
946.30003	1177529		129980
950.19802	1137439		99816
952.05325	1263305		107407
952.91263	1170968		133059
957.01803	1194388		148027
959.91912	1193122		125666
960.05524	1198767		134738
960.28313	1173188		124019
960.78112	1141491		102674
960.79154	1344244		134795
961.18051	1188632		132579
964.63553	1254239		94294
964.7787	1154668		142244
969.29454	1203743		139207
970.133	1255024		127634
973.89192	1221604		151303
976.8338	1215244		160630
978.32354	1237413		124795
978.96933	1302503		129643
979.63051	1238188		60462
983.56015	1194954		126320
984.12458	1195015		114079
986.74568	1351972		98780
988.88892	1249042		83912
991.00763	1281282		133715
991.3033	1428772		149904
995.52948	1252113		109539
996.49282	1318021		83004
996.86492	1211313		137415
1003.15252	1193153		95870
1005.76962	1239575		140617
1008.9252	1221055		123711
1010.97081	1234650		146099
1011.19521	1250554		134648
1011.91919	1281632		94678
1012.07785	1207670		128042
1013.22443	1406490		98481
1014.20569	1218215		133886
1015.95945	1218472		95049
1016.33672	1190880		149283
1018.59345	1455923		101876
1019.18465	1216398		134634
1027.35666	1269423		90954
1029.29401	1364729		73841
1033.86186	1214240		139050
1036.3108	1303266		120947
1036.63154	1212702		114797
1038.50446	1415297		88037
1039.43927	1247028		105117
1040.80017	1403966		118600
1047.27748	1198183		93443
1047.55817	1201571		105947
1047.71236	1381827		80333
1049.04235	1365216		85804
1050.78731	1216860		79891
1052.91984	1316406		129022
1056.47678	1342304		122210
1058.23986	1207546		111524
1061.33606	1201624		144841
1065.29403	1431448		87047
1065.54488	1378261		109997
1066.63271	1305058		78164
1067.89196	1268249		122010
1069.89689	1289230		152712
1070.39999	1229452		133631
1080.03383	1322026		107093
1081.18032	1316690		111077
1084.07371	1262146		147724
1085.74628	1263093		128377
1088.2286	1281659		89353
1090.49216	1485513		113075
1093.73984	1305110		112607
1095.90635	1396807		84060
1102.8533	1397054		128675
1102.89717	1517385		121236
1112.14955	1284427		82162
1112.33158	1345143		123183
1115.42975	1280866		106052
1117.55293	1328985		140164
1118.66277	1286237		77897
1123.80483	1272562		137153
1129.86833	1290769		92208
1132.92036	1291908		122469
1133.92076	1383244		92580
1138.90749	1279753		82535
1139.65236	1286545		107468
1140.03632	1459159		93462
1146.37288	1403668		70344
1150.88724	1345222		119928
1155.30465	1603882		89324
1160.06175	1308543		92947
1163.77332	1315113		106700
1168.62881	1397547		76620
1169.60206	1278348		93840
1177.95401	1589401		115473
1179.40614	1332505		75344
1179.64686	1320750		116072
1180.78199	1309584		120054
1180.92198	1304476		103221
1182.91093	1279046		118195
1183.5728	1318525		102194
1196.45984	1696942		73304
1197.83694	1387810		101760
1199.37892	1344935		114766
1199.56432	1379255		125235
1201.08474	1518651		102612
1213.32247	1369037		56405
1227.11918	1482586		82912
1227.32871	1421175		130986
1229.71529	1344720		100514
1230.47427	1363266		112352
1234.41701	1406384		73167
1234.98996	1341455		111099
1235.44	1355866		90584
1236.98311	1402211		76238
1239.36517	1458447		108325
1243.40965	1477658		102885
1245.52787	1368399		54641
1252.3776	1380834		108497
1254.78126	1388085		109191
1260.73551	1412698		91397
1266.93779	1375550		68099
1268.78932	1360737		76364
1269.07722	1590967		62329
1269.9653	1453761		97402
1271.06749	1363469		76737
1273.19452	1364630		91178
1277.61865	1457654		104974
1278.29115	1505994		107760
1281.28042	1401469		116709
1281.69345	1377025		113425
1300.57955	1591970		96182
1303.8426	1439389		82820
1304.52331	1540975		122208
1305.13131	1360939		67248
1309.93576	1364440		124418
1314.51903	1589005		78709
1318.39512	1410884		93843
1321.06942	1552400		94644
1322.01524	1425670		83660
1323.64491	1442983		80376
1327.13561	1381375		120685
1329.28005	1371123		97584
1332.54523	1547457		52262
1333.88727	1586649		90301
1337.45184	1385617		68243
1338.51086	1477458		68987
1344.59317	1401126		81327
1352.93136	1481436		87011
1359.13545	1516159		104398
1363.36346	1506084		75839
1364.49864	1453889		103304
1365.23439	1371985		82798
1372.41167	1434489		49770
1378.65093	1404688		88664
1379.00717	1676551		63962
1394.46651	1388226		77207
1401.23888	1481642		101745
1403.16659	1439074		53366
1403.91655	1503559		63190
1404.37678	1406007		55331
1413.11522	1555548		82680
1419.22223	1711685		60439
1419.31477	1532997		79519
1421.8443	2153062		102245
1421.94035	1506919		74908
1432.62765	1455685		87845
1440.07542	1481501		76277
1443.6426	1459459		109986
1454.73471	1463666		96536
1457.18234	1447378		76414
1458.266	1511149		75368
1458.74257	1393260		60507
1461.40794	1433679		96716
1469.58844	1434164		105166
1470.82396	1457104		77468
1483.00652	1584889		85194
1483.3406	1457527		93391
1484.05024	1404549		89156
1489.2714	1419879		89444
1492.25479	1467128		65437
1498.57323	1473200		84534
1507.85238	1722052		74726
1514.6126	1542804		66005
1516.48581	1570611		71573
1517.20187	1513520		71078
1526.80394	1458318		66766
1527.28899	1427489		49786
1530.39275	1446318		70233
1530.98216	1642836		87121
1534.64783	1504551		53682
1535.38214	1485536		65493
1535.55155	1526282		68639
1542.45494	1456128		90536
1542.74068	1460279		76088
1546.04401	1540219		53839
1547.30237	1492285		58697
1553.80685	1422905		82631
1558.50543	1426294		96521
1561.55105	1592811		66031
1562.12962	1448442		74270
1570.0246	1433104		88825
1571.11086	1440765		103982
1571.16501	1490940		72682
1574.29524	1445805		103783
1586.90238	1544133		75022
1593.37109	1425640		85175
1593.40799	1489639		78717
1593.55831	1518307		44187
1594.27539	1425617		93544
1598.60436	1543310		57117
